%OpenBCI Raw EEG Data
%
%Sample Rate = 250.0 Hz
%First Column = SampleIndex
%Last Column = Timestamp 
%Other Columns = EEG data in microvolts followed by Accel Data (in G) interleaved with Aux Data
0, 0.00, 0.00, 0.00, 0.00, 0.00, 0.00, 0.00, 0.00, 0.226, 0.866, -0.498, 20:26:45.055
1, -37730.77, -31458.40, -43008.96, -38107.55, -9480.18, -28429.50, -18498.01, -48304.55, 0.000, 0.000, 0.000, 20:26:45.056
2, -37991.32, -31592.22, -43357.53, -38071.81, -9737.85, -28941.08, -19135.98, -48241.97, 0.000, 0.000, 0.000, 20:26:45.056
3, -38178.59, -31914.91, -43114.12, -38227.72, -9120.61, -29145.02, -18971.29, -48308.55, 0.000, 0.000, 0.000, 20:26:45.057
4, -38047.83, -31986.93, -42604.43, -38356.42, -8456.98, -28772.44, -18237.88, -48403.06, 0.000, 0.000, 0.000, 20:26:45.057
5, -37769.21, -31700.52, -42524.46, -38273.92, -8664.00, -28321.96, -17940.54, -48392.00, 0.000, 0.000, 0.000, 20:26:45.057
6, -37735.31, -31458.87, -42998.54, -38103.35, -9469.88, -28427.51, -18505.25, -48300.15, 0.000, 0.000, 0.000, 20:26:45.058
7, -38004.47, -31598.75, -43355.12, -38073.96, -9735.91, -28936.88, -19134.08, -48249.26, 0.000, 0.000, 0.000, 20:26:45.058
8, -38187.37, -31917.98, -43111.17, -38227.79, -9112.02, -29142.45, -18972.88, -48309.47, 0.228, 0.866, -0.494, 20:26:45.058
9, -38045.30, -31984.50, -42593.95, -38351.99, -8444.87, -28757.55, -18227.71, -48404.98, 0.000, 0.000, 0.000, 20:26:45.058
10, -37769.77, -31702.10, -42520.64, -38273.50, -8663.74, -28317.36, -17938.19, -48404.98, 0.000, 0.000, 0.000, 20:26:45.059
11, -37732.18, -31457.04, -42998.07, -38095.06, -9470.97, -28429.07, -18509.23, -48305.56, 0.000, 0.000, 0.000, 20:26:45.059
12, -37994.03, -31589.27, -43354.27, -38053.71, -9735.95, -28943.76, -19145.65, -48241.03, 0.000, 0.000, 0.000, 20:26:45.059
13, -38170.30, -31903.16, -43102.23, -38203.20, -9104.67, -29139.66, -18982.89, -48295.93, 0.000, 0.000, 0.000, 20:26:45.059
14, -38036.68, -31980.16, -42584.59, -38340.66, -8440.09, -28745.62, -18230.66, -48392.11, 0.000, 0.000, 0.000, 20:26:45.060
15, -37771.92, -31707.92, -42518.36, -38275.35, -8668.57, -28302.09, -17937.52, -48401.52, 0.000, 0.000, 0.000, 20:26:45.060
16, -37737.59, -31465.24, -42986.23, -38100.18, -9471.57, -28397.82, -18478.16, -48310.48, 0.000, 0.000, 0.000, 20:26:45.061
17, -38006.91, -31596.40, -43359.10, -38057.69, -9742.92, -28939.76, -19135.02, -48256.74, 0.222, 0.868, -0.498, 20:26:45.061
18, -38180.06, -31911.81, -43113.00, -38215.36, -9114.28, -29149.67, -18987.96, -48305.61, 0.000, 0.000, 0.000, 20:26:45.062
19, -38042.45, -31988.12, -42585.14, -38354.72, -8446.05, -28736.27, -18213.36, -48398.12, 0.000, 0.000, 0.000, 20:26:45.062
20, -37771.81, -31708.14, -42516.10, -38278.57, -8671.36, -28291.47, -17922.32, -48398.16, 0.000, 0.000, 0.000, 20:26:45.062
21, -37740.79, -31463.57, -42991.43, -38101.09, -9478.12, -28400.64, -18477.49, -48300.93, 0.000, 0.000, 0.000, 20:26:45.063
22, -38005.77, -31596.09, -43354.65, -38064.89, -9744.35, -28930.13, -19116.02, -48243.91, 0.000, 0.000, 0.000, 20:26:45.063
23, -38182.14, -31909.10, -43106.88, -38216.92, -9118.17, -29130.85, -18951.57, -48304.55, 0.000, 0.000, 0.000, 20:26:45.063
24, -38036.39, -31974.75, -42586.42, -38344.15, -8444.62, -28745.39, -18219.26, -48403.50, 0.000, 0.000, 0.000, 20:26:45.063
25, -37760.52, -31694.17, -42510.20, -38264.98, -8660.27, -28303.59, -17935.35, -48396.96, 0.000, 0.000, 0.000, 20:26:45.064
26, -37729.03, -31453.02, -42986.85, -38087.64, -9468.85, -28426.30, -18508.07, -48299.35, 0.000, 0.000, 0.000, 20:26:45.064
27, -38003.02, -31597.77, -43353.35, -38058.40, -9739.59, -28951.23, -19149.61, -48245.99, 0.222, 0.872, -0.502, 20:26:45.064
28, -38181.09, -31911.92, -43110.75, -38207.71, -9115.24, -29156.87, -18999.92, -48298.32, 0.000, 0.000, 0.000, 20:26:45.064
29, -38036.16, -31981.97, -42578.26, -38336.91, -8434.41, -28747.61, -18245.86, -48387.50, 0.000, 0.000, 0.000, 20:26:45.065
30, -37761.44, -31704.52, -42493.17, -38265.71, -8649.81, -28273.26, -17920.33, -48390.00, 0.000, 0.000, 0.000, 20:26:45.065
31, -37733.14, -31459.25, -42976.52, -38084.51, -9462.70, -28383.94, -18473.92, -48290.38, 0.000, 0.000, 0.000, 20:26:45.065
32, -38002.21, -31591.11, -43348.57, -38043.47, -9735.46, -28922.62, -19126.30, -48234.44, 0.000, 0.000, 0.000, 20:26:45.065
33, -38183.80, -31912.77, -43102.03, -38205.19, -9112.40, -29130.18, -18969.01, -48299.41, 0.000, 0.000, 0.000, 20:26:45.066
34, -38044.95, -31989.93, -42577.61, -38344.80, -8440.98, -28738.44, -18221.39, -48397.25, 0.000, 0.000, 0.000, 20:26:45.066
35, -37772.64, -31710.69, -42495.63, -38272.49, -8653.48, -28274.69, -17904.35, -48400.40, 0.000, 0.000, 0.000, 20:26:45.066
36, -37739.15, -31457.15, -42981.24, -38081.80, -9466.48, -28398.40, -18477.72, -48297.18, 0.000, 0.000, 0.000, 20:26:45.066
37, -38007.15, -31595.42, -43345.44, -38054.02, -9734.56, -28918.87, -19111.48, -48243.36, 0.224, 0.866, -0.506, 20:26:45.067
38, -38186.30, -31912.19, -43106.25, -38210.48, -9118.97, -29129.89, -18960.11, -48309.18, 0.000, 0.000, 0.000, 20:26:45.067
39, -38036.72, -31981.10, -42578.60, -38341.60, -8441.11, -28732.36, -18211.66, -48396.71, 0.000, 0.000, 0.000, 20:26:45.067
40, -37764.07, -31700.20, -42504.23, -38265.87, -8659.62, -28280.37, -17912.46, -48395.53, 0.000, 0.000, 0.000, 20:26:45.067
41, -37728.96, -31444.57, -42987.95, -38077.74, -9476.22, -28409.09, -18498.13, -48299.35, 0.000, 0.000, 0.000, 20:26:45.068
42, -37993.23, -31575.59, -43351.30, -38042.09, -9743.10, -28940.95, -19152.47, -48240.70, 0.000, 0.000, 0.000, 20:26:45.068
43, -38173.25, -31899.85, -43102.36, -38203.13, -9115.20, -29134.92, -18982.06, -48297.96, 0.000, 0.000, 0.000, 20:26:45.069
44, -38030.73, -31973.63, -42581.23, -38338.52, -8444.00, -28743.76, -18238.60, -48392.46, 0.000, 0.000, 0.000, 20:26:45.069
45, -37761.77, -31700.63, -42502.15, -38268.87, -8667.02, -28284.28, -17929.07, -48400.49, 0.000, 0.000, 0.000, 20:26:45.069
46, -37736.79, -31454.22, -42988.77, -38089.56, -9483.55, -28407.10, -18504.45, -48297.80, 0.000, 0.000, 0.000, 20:26:45.070
47, -38004.09, -31588.80, -43348.86, -38057.55, -9743.39, -28920.68, -19122.50, -48244.61, 0.224, 0.866, -0.508, 20:26:45.070
48, -38183.89, -31905.17, -43111.51, -38209.88, -9124.56, -29136.37, -18965.14, -48306.28, 0.000, 0.000, 0.000, 20:26:45.071
49, -38039.98, -31976.29, -42583.94, -38340.71, -8443.55, -28738.53, -18213.12, -48401.49, 0.000, 0.000, 0.000, 20:26:45.071
50, -37760.05, -31691.80, -42500.32, -38259.52, -8650.48, -28279.02, -17909.56, -48388.69, 0.000, 0.000, 0.000, 20:26:45.071
51, -37726.37, -31443.45, -42980.26, -38078.41, -9460.62, -28393.91, -18481.40, -48294.88, 0.000, 0.000, 0.000, 20:26:45.071
52, -37999.15, -31586.43, -43346.22, -38051.88, -9728.10, -28914.44, -19119.79, -48246.26, 0.000, 0.000, 0.000, 20:26:45.072
53, -38187.42, -31911.72, -43114.14, -38210.64, -9118.91, -29134.29, -18975.07, -48307.95, 0.000, 0.000, 0.000, 20:26:45.072
54, -38042.82, -31983.63, -42585.59, -38344.44, -8447.44, -28743.20, -18229.57, -48400.73, 0.000, 0.000, 0.000, 20:26:45.072
55, -37769.04, -31702.08, -42502.98, -38266.79, -8659.47, -28286.29, -17923.21, -48395.93, 0.000, 0.000, 0.000, 20:26:45.072
56, -37737.99, -31455.83, -42978.85, -38086.84, -9467.17, -28393.44, -18481.12, -48297.78, 0.000, 0.000, 0.000, 20:26:45.072
57, -38013.97, -31598.21, -43353.55, -38056.10, -9745.41, -28925.55, -19128.31, -48249.34, 0.222, 0.864, -0.510, 20:26:45.073
58, -38192.54, -31914.18, -43110.50, -38206.84, -9124.29, -29132.44, -18967.33, -48311.35, 0.000, 0.000, 0.000, 20:26:45.073
59, -38041.01, -31974.44, -42586.29, -38332.84, -8447.95, -28752.59, -18238.55, -48396.31, 0.000, 0.000, 0.000, 20:26:45.073
60, -37757.53, -31690.88, -42490.17, -38258.18, -8649.81, -28275.87, -17913.74, -48389.56, 0.000, 0.000, 0.000, 20:26:45.073
61, -37728.11, -31449.10, -42973.93, -38083.21, -9467.86, -28393.96, -18482.63, -48298.90, 0.000, 0.000, 0.000, 20:26:45.073
62, -37997.00, -31589.65, -43336.66, -38052.91, -9738.25, -28909.25, -19109.27, -48244.41, 0.000, 0.000, 0.000, 20:26:45.074
63, -38175.62, -31904.52, -43094.74, -38201.84, -9113.45, -29118.94, -18945.25, -48297.83, 0.000, 0.000, 0.000, 20:26:45.074
64, -38035.74, -31977.43, -42577.86, -38334.71, -8442.92, -28745.79, -18214.23, -48395.44, 0.000, 0.000, 0.000, 20:26:45.074
65, -37761.41, -31698.66, -42497.55, -38264.82, -8659.94, -28287.34, -17913.63, -48398.48, 0.000, 0.000, 0.000, 20:26:45.074
66, -37728.34, -31451.07, -42976.91, -38086.63, -9471.08, -28396.68, -18479.77, -48305.16, 0.000, 0.000, 0.000, 20:26:45.075
67, -38004.38, -31589.03, -43348.91, -38055.65, -9743.55, -28924.74, -19123.46, -48247.04, 0.220, 0.866, -0.506, 20:26:45.075
68, -38186.79, -31907.40, -43118.21, -38211.11, -9125.52, -29150.83, -18986.73, -48305.79, 0.000, 0.000, 0.000, 20:26:45.075
69, -38043.16, -31981.70, -42594.89, -38349.67, -8451.31, -28766.16, -18254.98, -48399.80, 0.000, 0.000, 0.000, 20:26:45.076
70, -37762.29, -31699.60, -42499.47, -38274.28, -8650.19, -28289.82, -17925.58, -48394.52, 0.000, 0.000, 0.000, 20:26:45.076
71, -37745.37, -31461.35, -42995.77, -38101.65, -9480.54, -28417.16, -18504.74, -48308.40, 0.000, 0.000, 0.000, 20:26:45.076
72, -38016.94, -31598.19, -43363.25, -38068.91, -9757.36, -28943.99, -19150.88, -48260.30, 0.000, 0.000, 0.000, 20:26:45.076
73, -38192.69, -31912.12, -43116.20, -38220.23, -9131.34, -29149.87, -18988.48, -48322.44, 0.000, 0.000, 0.000, 20:26:45.076
74, -38046.82, -31980.81, -42589.26, -38349.98, -8451.48, -28758.69, -18240.28, -48403.66, 0.000, 0.000, 0.000, 20:26:45.077
75, -37766.91, -31699.13, -42507.32, -38274.25, -8661.99, -28298.85, -17935.87, -48390.61, 0.000, 0.000, 0.000, 20:26:45.077
76, -37731.13, -31451.79, -42976.50, -38096.85, -9463.44, -28384.26, -18474.54, -48298.65, 0.000, 0.000, 0.000, 20:26:45.077
77, -38004.09, -31585.63, -43353.38, -38061.46, -9745.27, -28918.02, -19125.85, -48243.42, 0.216, 0.868, -0.504, 20:26:45.077
78, -38182.61, -31904.79, -43111.35, -38218.00, -9123.09, -29130.04, -18964.45, -48304.27, 0.000, 0.000, 0.000, 20:26:45.077
79, -38041.13, -31973.65, -42590.49, -38341.93, -8447.51, -28751.25, -18223.31, -48397.25, 0.000, 0.000, 0.000, 20:26:45.078
80, -37767.79, -31692.96, -42511.27, -38263.59, -8656.47, -28301.20, -17930.48, -48392.33, 0.000, 0.000, 0.000, 20:26:45.078
81, -37735.60, -31449.28, -42980.08, -38088.09, -9460.80, -28396.46, -18481.52, -48295.99, 0.000, 0.000, 0.000, 20:26:45.079
82, -37999.51, -31583.48, -43334.91, -38049.91, -9730.81, -28902.73, -19096.03, -48240.56, 0.000, 0.000, 0.000, 20:26:45.079
83, -38181.43, -31899.40, -43103.89, -38197.63, -9119.71, -29130.85, -18956.83, -48298.83, 0.000, 0.000, 0.000, 20:26:45.079
84, -38037.08, -31968.67, -42579.16, -38328.93, -8442.08, -28748.07, -18219.69, -48383.59, 0.000, 0.000, 0.000, 20:26:45.079
85, -37755.61, -31683.96, -42488.59, -38251.79, -8642.46, -28285.64, -17906.96, -48376.86, 0.000, 0.000, 0.000, 20:26:45.080
86, -37731.57, -31449.69, -42967.76, -38089.52, -9451.23, -28387.74, -18457.36, -48294.68, 0.000, 0.000, 0.000, 20:26:45.080
87, -38011.35, -31592.80, -43346.25, -38060.48, -9740.73, -28922.20, -19104.86, -48244.07, 0.212, 0.860, -0.508, 20:26:45.080
88, -38187.44, -31902.33, -43107.89, -38208.94, -9124.32, -29146.81, -18964.52, -48297.36, 0.000, 0.000, 0.000, 20:26:45.081
89, -38041.91, -31968.83, -42579.00, -38335.36, -8440.73, -28758.49, -18217.28, -48381.78, 0.000, 0.000, 0.000, 20:26:45.081
90, -37762.87, -31687.78, -42491.80, -38261.09, -8642.48, -28297.31, -17904.69, -48376.41, 0.000, 0.000, 0.000, 20:26:45.081
91, -37731.84, -31444.14, -42972.14, -38088.62, -9461.31, -28405.89, -18469.89, -48290.54, 0.000, 0.000, 0.000, 20:26:45.082
92, -38003.71, -31580.55, -43344.32, -38055.50, -9742.70, -28928.68, -19118.34, -48239.24, 0.000, 0.000, 0.000, 20:26:45.082
93, -38192.92, -31901.93, -43114.77, -38209.30, -9129.03, -29150.63, -18982.11, -48297.74, 0.000, 0.000, 0.000, 20:26:45.082
94, -38050.38, -31978.28, -42587.31, -38349.80, -8443.64, -28759.70, -18234.91, -48391.61, 0.000, 0.000, 0.000, 20:26:45.082
95, -37765.48, -31691.02, -42494.04, -38266.79, -8642.88, -28287.47, -17906.34, -48388.75, 0.000, 0.000, 0.000, 20:26:45.083
96, -37733.59, -31444.46, -42978.47, -38089.63, -9463.42, -28411.57, -18489.97, -48294.05, 0.216, 0.862, -0.510, 20:26:45.083
97, -38001.29, -31580.20, -43344.41, -38055.34, -9739.12, -28935.83, -19136.38, -48239.13, 0.000, 0.000, 0.000, 20:26:45.083
98, -38180.04, -31895.56, -43110.46, -38206.28, -9124.79, -29164.02, -19001.35, -48300.49, 0.000, 0.000, 0.000, 20:26:45.084
99, -38044.05, -31976.03, -42592.68, -38345.33, -8456.49, -28790.19, -18272.19, -48403.39, 0.000, 0.000, 0.000, 20:26:45.084
100, -37768.75, -31697.81, -42509.60, -38272.06, -8665.53, -28333.25, -17970.11, -48400.51, 0.000, 0.000, 0.000, 20:26:45.084
101, -37723.55, -31441.91, -42970.20, -38087.86, -9459.79, -28415.68, -18508.63, -48297.29, 0.000, 0.000, 0.000, 20:26:45.084
102, -37990.59, -31572.75, -43339.18, -38048.93, -9737.54, -28930.44, -19146.24, -48239.96, 0.000, 0.000, 0.000, 20:26:45.085
103, -38175.88, -31892.18, -43103.35, -38205.63, -9121.66, -29136.37, -18983.47, -48297.45, 0.000, 0.000, 0.000, 20:26:45.085
104, -38042.60, -31972.54, -42591.94, -38342.07, -8457.61, -28762.71, -18249.24, -48394.12, 0.000, 0.000, 0.000, 20:26:45.085
105, -37769.75, -31702.84, -42505.86, -38277.94, -8665.84, -28295.47, -17928.65, -48402.48, 0.000, 0.000, 0.000, 20:26:45.086
106, -37737.10, -31454.29, -42980.48, -38097.65, -9470.81, -28394.18, -18476.71, -48306.72, 0.220, 0.864, -0.504, 20:26:45.086
107, -38002.75, -31585.38, -43346.65, -38059.14, -9744.15, -28911.24, -19109.09, -48239.60, 0.000, 0.000, 0.000, 20:26:45.086
108, -38188.02, -31903.45, -43118.66, -38212.94, -9136.90, -29141.55, -18973.86, -48303.01, 0.000, 0.000, 0.000, 20:26:45.086
109, -38044.75, -31974.04, -42598.80, -38343.10, -8462.04, -28768.62, -18242.11, -48397.71, 0.000, 0.000, 0.000, 20:26:45.087
110, -37760.01, -31686.26, -42508.95, -38263.32, -8662.60, -28312.44, -17937.70, -48388.78, 0.000, 0.000, 0.000, 20:26:45.087
111, -37719.35, -31433.57, -42971.88, -38085.07, -9461.90, -28401.11, -18480.51, -48291.75, 0.000, 0.000, 0.000, 20:26:45.087
112, -37990.32, -31568.64, -43344.95, -38050.69, -9743.48, -28917.43, -19117.36, -48248.38, 0.000, 0.000, 0.000, 20:26:45.088
113, -38166.03, -31879.35, -43112.63, -38193.03, -9126.98, -29139.90, -18979.67, -48301.16, 0.000, 0.000, 0.000, 20:26:45.088
114, -38021.23, -31952.76, -42578.95, -38323.18, -8438.92, -28742.64, -18220.56, -48385.98, 0.000, 0.000, 0.000, 20:26:45.088
115, -37749.97, -31679.55, -42496.19, -38255.39, -8654.91, -28283.90, -17907.97, -48390.16, 0.000, 0.000, 0.000, 20:26:45.088
116, -37715.41, -31428.65, -42974.20, -38076.39, -9469.12, -28403.05, -18486.93, -48296.69, 0.220, 0.862, -0.504, 20:26:45.089
117, -37982.81, -31560.80, -43343.36, -38044.63, -9743.28, -28934.04, -19146.73, -48243.98, 0.000, 0.000, 0.000, 20:26:45.089
118, -38172.38, -31889.90, -43113.59, -38211.58, -9134.20, -29153.85, -19006.45, -48308.78, 0.000, 0.000, 0.000, 20:26:45.089
119, -38036.43, -31966.12, -42593.50, -38344.46, -8458.93, -28773.15, -18268.50, -48397.94, 0.000, 0.000, 0.000, 20:26:45.089
120, -37762.33, -31692.94, -42505.98, -38276.54, -8661.17, -28309.13, -17952.47, -48400.06, 0.000, 0.000, 0.000, 20:26:45.533
121, -37719.82, -31437.28, -42978.80, -38090.68, -9466.57, -28406.18, -18507.15, -48307.13, 0.000, 0.000, 0.000, 20:26:45.533
122, -37978.74, -31564.28, -43342.60, -38051.59, -9742.81, -28921.79, -19149.16, -48245.32, 0.000, 0.000, 0.000, 20:26:45.533
123, -38157.69, -31881.54, -43096.53, -38204.47, -9121.99, -29123.45, -18981.66, -48296.91, 0.000, 0.000, 0.000, 20:26:45.534
124, -38026.29, -31959.30, -42585.79, -38339.61, -8453.88, -28747.56, -18239.60, -48394.45, 0.000, 0.000, 0.000, 20:26:45.534
125, -37752.81, -31686.32, -42509.20, -38274.41, -8663.25, -28297.80, -17939.60, -48398.86, 0.000, 0.000, 0.000, 20:26:45.534
126, -37708.53, -31435.58, -42971.05, -38097.41, -9458.50, -28385.96, -18482.41, -48300.93, 0.220, 0.868, -0.504, 20:26:45.534
127, -37980.57, -31575.44, -43343.68, -38067.21, -9741.90, -28906.64, -19120.26, -48251.16, 0.000, 0.000, 0.000, 20:26:45.534
128, -38172.78, -31898.78, -43119.24, -38222.06, -9137.91, -29135.59, -18980.56, -48311.86, 0.000, 0.000, 0.000, 20:26:45.535
129, -38035.27, -31970.73, -42600.28, -38352.13, -8460.18, -28761.98, -18242.91, -48400.67, 0.000, 0.000, 0.000, 20:26:45.535
130, -37754.09, -31684.56, -42511.59, -38275.89, -8652.47, -28308.66, -17934.21, -48393.58, 0.000, 0.000, 0.000, 20:26:45.535
131, -37718.70, -31442.04, -42989.13, -38107.96, -9470.28, -28417.54, -18498.13, -48298.25, 0.000, 0.000, 0.000, 20:26:45.535
132, -37989.94, -31580.42, -43359.39, -38079.88, -9758.50, -28932.99, -19135.78, -48241.21, 0.000, 0.000, 0.000, 20:26:45.535
133, -38176.35, -31899.71, -43129.39, -38231.63, -9142.51, -29152.69, -18990.55, -48307.53, 0.000, 0.000, 0.000, 20:26:45.536
134, -38039.11, -31971.91, -42610.96, -38358.95, -8460.54, -28785.04, -18265.15, -48397.20, 0.000, 0.000, 0.000, 20:26:45.536
135, -37753.35, -31688.54, -42516.19, -38282.30, -8656.14, -28323.77, -17956.38, -48383.32, 0.000, 0.000, 0.000, 20:26:45.536
136, -37703.43, -31431.92, -42973.66, -38101.27, -9453.02, -28413.56, -18502.42, -48285.42, 0.216, 0.870, -0.502, 20:26:45.536
137, -37973.51, -31568.71, -43342.07, -38070.63, -9738.97, -28930.11, -19138.84, -48238.41, 0.000, 0.000, 0.000, 20:26:45.536
138, -38164.93, -31892.76, -43118.88, -38228.79, -9137.93, -29159.28, -19002.33, -48304.22, 0.000, 0.000, 0.000, 20:26:45.536
139, -38023.11, -31965.38, -42588.32, -38362.95, -8449.50, -28767.59, -18242.53, -48388.08, 0.000, 0.000, 0.000, 20:26:45.536
140, -37739.67, -31680.33, -42492.48, -38285.45, -8646.84, -28305.24, -17918.83, -48383.34, 0.000, 0.000, 0.000, 20:26:45.537
141, -37698.18, -31430.44, -42960.34, -38110.33, -9454.92, -28406.07, -18472.02, -48294.77, 0.000, 0.000, 0.000, 20:26:45.537
142, -37971.52, -31567.37, -43334.33, -38078.90, -9747.86, -28933.93, -19117.69, -48245.93, 0.000, 0.000, 0.000, 20:26:45.537
143, -38161.49, -31887.20, -43112.67, -38233.44, -9147.03, -29169.29, -18991.65, -48305.74, 0.000, 0.000, 0.000, 20:26:45.537
144, -38027.94, -31964.38, -42597.91, -38363.59, -8465.92, -28802.79, -18263.41, -48399.44, 0.000, 0.000, 0.000, 20:26:45.537
145, -37739.89, -31674.79, -42501.75, -38281.18, -8653.66, -28345.30, -17958.44, -48388.33, 0.000, 0.000, 0.000, 20:26:45.537
146, -37692.91, -31424.14, -42954.02, -38100.60, -9441.58, -28423.04, -18490.79, -48286.50, 0.216, 0.858, -0.498, 20:26:45.537
147, -37971.21, -31565.00, -43333.91, -38073.87, -9734.34, -28948.41, -19132.91, -48242.06, 0.000, 0.000, 0.000, 20:26:45.538
148, -38159.77, -31886.01, -43114.10, -38234.07, -9129.14, -29177.32, -18995.96, -48302.14, 0.000, 0.000, 0.000, 20:26:45.538
149, -38023.87, -31961.03, -42598.49, -38361.58, -8452.16, -28800.60, -18260.86, -48396.93, 0.000, 0.000, 0.000, 20:26:45.538
150, -37741.50, -31683.35, -42502.64, -38288.36, -8641.77, -28328.73, -17938.55, -48393.96, 0.000, 0.000, 0.000, 20:26:45.538
151, -37702.45, -31433.12, -42968.66, -38108.34, -9445.76, -28417.47, -18485.09, -48295.23, 0.000, 0.000, 0.000, 20:26:45.539
152, -37969.06, -31569.92, -43334.78, -38081.47, -9731.73, -28922.60, -19114.05, -48243.91, 0.000, 0.000, 0.000, 20:26:45.539
153, -38159.52, -31888.05, -43115.17, -38229.98, -9132.34, -29154.09, -18977.50, -48297.43, 0.000, 0.000, 0.000, 20:26:45.539
154, -38022.30, -31962.21, -42602.31, -38361.71, -8459.17, -28788.87, -18254.58, -48379.34, 0.000, 0.000, 0.000, 20:26:45.539
155, -37745.81, -31687.58, -42503.45, -38296.79, -8646.93, -28307.70, -17916.53, -48382.67, 0.000, 0.000, 0.000, 20:26:45.539
156, -37704.98, -31434.89, -42972.99, -38116.12, -9451.57, -28404.10, -18463.97, -48289.27, 0.222, 0.860, -0.506, 20:26:45.540
157, -37969.09, -31566.00, -43340.72, -38078.41, -9732.49, -28917.41, -19099.03, -48229.30, 0.000, 0.000, 0.000, 20:26:45.540
158, -38155.57, -31883.47, -43118.10, -38232.90, -9127.85, -29144.15, -18959.84, -48291.21, 0.000, 0.000, 0.000, 20:26:45.540
159, -38019.85, -31960.54, -42598.58, -38370.23, -8453.25, -28771.37, -18223.53, -48388.38, 0.000, 0.000, 0.000, 20:26:45.540
160, -37741.46, -31681.56, -42503.32, -38297.48, -8646.30, -28312.24, -17907.19, -48394.57, 0.000, 0.000, 0.000, 20:26:45.540
161, -37699.99, -31431.89, -42974.38, -38119.60, -9457.13, -28416.26, -18468.04, -48302.32, 0.000, 0.000, 0.000, 20:26:45.540
162, -37969.00, -31569.96, -43346.42, -38091.08, -9742.66, -28935.65, -19109.11, -48248.16, 0.000, 0.000, 0.000, 20:26:45.541
163, -38155.48, -31884.81, -43123.31, -38240.57, -9134.33, -29167.95, -18979.18, -48297.47, 0.000, 0.000, 0.000, 20:26:45.541
164, -38015.09, -31958.84, -42601.66, -38373.56, -8447.42, -28788.73, -18234.73, -48384.98, 0.000, 0.000, 0.000, 20:26:45.541
165, -37734.59, -31680.13, -42506.40, -38305.46, -8642.30, -28317.60, -17908.26, -48396.13, 0.214, 0.868, -0.498, 20:26:45.541
166, -37691.21, -31424.41, -42976.26, -38120.59, -9450.41, -28414.90, -18463.30, -48293.80, 0.000, 0.000, 0.000, 20:26:45.541
167, -37954.13, -31554.72, -43346.94, -38085.43, -9733.13, -28934.27, -19107.05, -48235.42, 0.000, 0.000, 0.000, 20:26:45.542
168, -38144.55, -31880.49, -43122.01, -38244.37, -9129.30, -29153.51, -18959.80, -48301.07, 0.000, 0.000, 0.000, 20:26:45.542
169, -38016.67, -31959.44, -42613.93, -38371.66, -8457.05, -28798.70, -18244.32, -48390.95, 0.000, 0.000, 0.000, 20:26:45.542
170, -37740.20, -31686.10, -42514.98, -38302.11, -8644.87, -28331.84, -17928.74, -48386.88, 0.000, 0.000, 0.000, 20:26:45.542
171, -37705.07, -31438.04, -42983.36, -38122.62, -9454.88, -28420.96, -18475.66, -48293.22, 0.000, 0.000, 0.000, 20:26:45.543
172, -37969.29, -31568.06, -43358.16, -38081.09, -9742.23, -28948.88, -19135.73, -48234.88, 0.000, 0.000, 0.000, 20:26:45.543
173, -38158.70, -31888.72, -43131.54, -38234.40, -9138.17, -29178.05, -19010.09, -48296.13, 0.000, 0.000, 0.000, 20:26:45.543
174, -38023.67, -31966.84, -42602.29, -38369.70, -8446.75, -28794.68, -18268.79, -48392.40, 0.000, 0.000, 0.000, 20:26:45.543
175, -37741.10, -31685.88, -42494.93, -38289.81, -8624.98, -28303.52, -17918.21, -48389.94, 0.220, 0.872, -0.500, 20:26:45.543
176, -37700.69, -31437.57, -42955.52, -38116.92, -9429.24, -28372.86, -18433.28, -48300.06, 0.000, 0.000, 0.000, 20:26:45.544
177, -37971.90, -31573.29, -43338.60, -38084.27, -9729.85, -28899.78, -19074.62, -48248.30, 0.000, 0.000, 0.000, 20:26:45.544
178, -38152.95, -31881.95, -43124.49, -38224.03, -9131.56, -29149.63, -18962.41, -48299.28, 0.000, 0.000, 0.000, 20:26:45.544
179, -38008.25, -31953.03, -42601.93, -38353.04, -8444.96, -28781.38, -18237.37, -48385.98, 0.000, 0.000, 0.000, 20:26:45.544
180, -37735.06, -31686.03, -42503.45, -38292.65, -8641.14, -28310.81, -17908.82, -48391.57, 0.000, 0.000, 0.000, 20:26:45.544
181, -37707.05, -31445.82, -42977.20, -38123.60, -9450.63, -28409.13, -18459.28, -48304.40, 0.000, 0.000, 0.000, 20:26:45.544
182, -37973.49, -31571.59, -43355.32, -38085.40, -9735.39, -28936.10, -19115.37, -48249.46, 0.000, 0.000, 0.000, 20:26:45.544
183, -38157.76, -31887.27, -43132.41, -38234.29, -9130.78, -29171.15, -18996.21, -48306.63, 0.000, 0.000, 0.000, 20:26:45.545
184, -38022.71, -31966.62, -42606.20, -38369.38, -8447.28, -28789.87, -18255.59, -48392.17, 0.000, 0.000, 0.000, 20:26:45.545
185, -37741.46, -31684.02, -42504.66, -38297.07, -8634.19, -28319.14, -17930.57, -48391.23, 0.218, 0.866, -0.502, 20:26:45.545
186, -37697.54, -31430.93, -42961.41, -38116.96, -9431.14, -28390.96, -18452.46, -48302.14, 0.000, 0.000, 0.000, 20:26:45.545
187, -37960.61, -31551.25, -43343.56, -38065.29, -9723.61, -28920.92, -19115.95, -48228.49, 0.000, 0.000, 0.000, 20:26:45.545
188, -38148.84, -31879.78, -43118.44, -38230.00, -9116.85, -29141.62, -18976.88, -48295.99, 0.000, 0.000, 0.000, 20:26:45.545
189, -38019.45, -31962.90, -42601.46, -38364.91, -8437.96, -28770.49, -18238.26, -48387.88, 0.000, 0.000, 0.000, 20:26:45.546
190, -37739.82, -31683.51, -42501.86, -38289.01, -8628.49, -28299.39, -17905.42, -48386.43, 0.000, 0.000, 0.000, 20:26:45.546
191, -37699.41, -31431.29, -42973.44, -38106.91, -9443.48, -28395.70, -18456.75, -48286.18, 0.000, 0.000, 0.000, 20:26:45.546
192, -37965.38, -31563.30, -43346.89, -38073.65, -9736.82, -28912.49, -19095.97, -48226.01, 0.000, 0.000, 0.000, 20:26:45.546
193, -38160.44, -31887.60, -43129.50, -38229.59, -9139.96, -29148.39, -18964.29, -48296.91, 0.000, 0.000, 0.000, 20:26:45.546
194, -38023.56, -31965.74, -42605.71, -38361.49, -8449.09, -28773.80, -18226.53, -48387.01, 0.000, 0.000, 0.000, 20:26:45.546
195, -37746.89, -31692.65, -42506.67, -38291.71, -8636.24, -28307.41, -17902.70, -48385.49, 0.220, 0.868, -0.500, 20:26:45.547
196, -37710.39, -31439.78, -42978.54, -38110.71, -9447.19, -28410.68, -18464.78, -48290.38, 0.000, 0.000, 0.000, 20:26:45.547
197, -37971.63, -31564.66, -43344.08, -38070.70, -9723.86, -28922.13, -19103.41, -48230.68, 0.000, 0.000, 0.000, 20:26:45.547
198, -38156.17, -31883.67, -43115.57, -38227.92, -9119.29, -29138.20, -18948.94, -48293.00, 0.000, 0.000, 0.000, 20:26:45.547
199, -38025.48, -31962.70, -42604.50, -38361.09, -8447.01, -28776.93, -18218.84, -48389.11, 0.000, 0.000, 0.000, 20:26:45.547
200, -37740.83, -31683.55, -42503.76, -38286.68, -8633.23, -28312.80, -17895.90, -48383.41, 0.000, 0.000, 0.000, 20:26:45.547
201, -37698.70, -31434.42, -42961.10, -38113.03, -9436.26, -28390.02, -18423.69, -48287.14, 0.000, 0.000, 0.000, 20:26:45.548
202, -37971.95, -31569.18, -43342.71, -38081.67, -9739.48, -28908.81, -19063.33, -48237.54, 0.000, 0.000, 0.000, 20:26:45.548
203, -38154.85, -31876.60, -43127.96, -38221.46, -9138.98, -29156.64, -18955.37, -48286.72, 0.000, 0.000, 0.000, 20:26:45.548
204, -38009.30, -31947.53, -42599.12, -38348.98, -8448.22, -28781.42, -18224.23, -48376.06, 0.000, 0.000, 0.000, 20:26:45.548
205, -37730.79, -31671.95, -42499.63, -38282.82, -8633.38, -28322.23, -17909.13, -48380.35, 0.218, 0.866, -0.498, 20:26:45.548
206, -37691.34, -31422.01, -42958.87, -38110.48, -9432.99, -28399.99, -18439.88, -48289.67, 0.000, 0.000, 0.000, 20:26:45.548
207, -37960.77, -31551.43, -43333.19, -38077.74, -9725.62, -28909.63, -19073.23, -48230.77, 0.000, 0.000, 0.000, 20:26:45.549
208, -38147.41, -31871.11, -43116.71, -38229.44, -9128.32, -29145.24, -18948.87, -48286.52, 0.000, 0.000, 0.000, 20:26:45.549
209, -38016.38, -31957.67, -42594.76, -38372.96, -8442.54, -28766.85, -18202.95, -48376.35, 0.000, 0.000, 0.000, 20:26:45.549
210, -37744.25, -31682.68, -42504.66, -38299.76, -8638.48, -28307.12, -17881.82, -48380.19, 0.000, 0.000, 0.000, 20:26:45.549
211, -37711.32, -31432.83, -42982.34, -38117.34, -9454.61, -28411.39, -18452.46, -48289.54, 0.000, 0.000, 0.000, 20:26:45.549
212, -37975.86, -31560.30, -43356.15, -38077.89, -9743.37, -28931.47, -19110.47, -48233.48, 0.000, 0.000, 0.000, 20:26:45.549
213, -38160.57, -31881.12, -43127.67, -38229.75, -9128.83, -29150.07, -18967.76, -48293.22, 0.000, 0.000, 0.000, 20:26:45.549
214, -38025.12, -31958.48, -42612.97, -38364.00, -8452.83, -28789.54, -18251.18, -48383.93, 0.000, 0.000, 0.000, 20:26:45.550
215, -37750.38, -31692.83, -42507.81, -38307.91, -8640.22, -28303.12, -17906.94, -48378.89, 0.224, 0.864, -0.500, 20:26:45.550
216, -37710.61, -31438.15, -42975.47, -38125.39, -9444.51, -28387.50, -18440.70, -48287.16, 0.000, 0.000, 0.000, 20:26:45.550
217, -37975.75, -31563.95, -43355.70, -38081.87, -9735.19, -28922.73, -19103.05, -48231.35, 0.000, 0.000, 0.000, 20:26:45.550
218, -38157.55, -31879.06, -43125.03, -38227.18, -9131.31, -29142.61, -18962.39, -48284.13, 0.000, 0.000, 0.000, 20:26:45.550
219, -38023.22, -31957.32, -42605.71, -38357.74, -8449.76, -28773.22, -18232.96, -48378.58, 0.000, 0.000, 0.000, 20:26:45.551
220, -37741.77, -31680.71, -42503.09, -38285.56, -8629.49, -28303.30, -17906.00, -48381.09, 0.000, 0.000, 0.000, 20:26:45.551
221, -37696.82, -31422.97, -42961.93, -38096.31, -9431.14, -28383.27, -18443.56, -48282.14, 0.000, 0.000, 0.000, 20:26:45.551
222, -37961.40, -31548.19, -43333.46, -38057.62, -9722.96, -28897.59, -19084.34, -48220.36, 0.000, 0.000, 0.000, 20:26:45.551
223, -38153.13, -31869.25, -43112.54, -38212.23, -9119.06, -29127.54, -18949.43, -48281.98, 0.000, 0.000, 0.000, 20:26:45.551
224, -38019.20, -31944.04, -42596.66, -38337.31, -8440.53, -28773.78, -18235.67, -48371.57, 0.000, 0.000, 0.000, 20:26:45.551
225, -37730.84, -31662.77, -42487.80, -38263.28, -8619.66, -28310.09, -17916.24, -48372.77, 0.222, 0.862, -0.506, 20:26:45.552
226, -37688.59, -31417.05, -42947.67, -38095.46, -9423.41, -28386.38, -18447.50, -48284.86, 0.000, 0.000, 0.000, 20:26:45.552
227, -37962.76, -31555.39, -43329.91, -38067.72, -9731.52, -28900.27, -19081.57, -48231.91, 0.000, 0.000, 0.000, 20:26:45.552
228, -38149.71, -31871.82, -43114.88, -38216.68, -9135.56, -29137.49, -18951.60, -48288.62, 0.000, 0.000, 0.000, 20:26:45.552
229, -38013.52, -31949.16, -42591.96, -38346.59, -8451.24, -28766.94, -18212.02, -48380.93, 0.000, 0.000, 0.000, 20:26:45.552
230, -37739.96, -31675.46, -42493.75, -38278.16, -8637.72, -28304.42, -17886.92, -48385.18, 0.000, 0.000, 0.000, 20:26:45.552
231, -37696.80, -31420.65, -42957.48, -38098.19, -9434.22, -28392.64, -18430.00, -48290.07, 0.000, 0.000, 0.000, 20:26:45.553
232, -37962.49, -31550.20, -43334.20, -38062.23, -9723.88, -28908.22, -19072.74, -48230.08, 0.000, 0.000, 0.000, 20:26:45.553
233, -38151.77, -31868.45, -43114.17, -38215.34, -9121.84, -29138.27, -18939.44, -48287.70, 0.000, 0.000, 0.000, 20:26:45.553
234, -38019.54, -31950.81, -42595.63, -38353.91, -8448.60, -28776.24, -18210.35, -48382.18, 0.000, 0.000, 0.000, 20:26:45.553
235, -37739.11, -31678.59, -42487.29, -38287.38, -8629.09, -28293.60, -17861.37, -48381.24, 0.224, 0.868, -0.510, 20:26:45.553
236, -37695.10, -31418.77, -42957.28, -38097.30, -9441.96, -28388.37, -18411.20, -48285.00, 0.000, 0.000, 0.000, 20:26:45.553
237, -37962.18, -31548.26, -43339.58, -38062.07, -9743.39, -28919.49, -19079.96, -48228.85, 0.000, 0.000, 0.000, 20:26:45.554
238, -38149.93, -31872.60, -43115.30, -38220.81, -9132.61, -29146.92, -18950.63, -48285.55, 0.000, 0.000, 0.000, 20:26:45.554
239, -38023.40, -31963.73, -42586.75, -38363.06, -8439.73, -28753.04, -18181.89, -48385.25, 0.000, 0.000, 0.000, 20:26:45.554
240, -37751.36, -31687.31, -42500.10, -38286.68, -8636.98, -28307.01, -17869.64, -48390.03, 0.000, 0.000, 0.000, 20:26:46.014
241, -37709.31, -31430.51, -42969.37, -38103.60, -9440.86, -28405.51, -18428.68, -48291.75, 0.000, 0.000, 0.000, 20:26:46.014
242, -37967.27, -31553.44, -43332.50, -38062.27, -9721.15, -28900.85, -19057.41, -48229.61, 0.000, 0.000, 0.000, 20:26:46.014
243, -38156.93, -31874.32, -43110.97, -38219.74, -9116.56, -29118.00, -18913.73, -48279.92, 0.000, 0.000, 0.000, 20:26:46.015
244, -38031.02, -31964.27, -42607.77, -38361.70, -8447.86, -28765.91, -18194.34, -48376.24, 0.226, 0.866, -0.506, 20:26:46.015
245, -37752.36, -31689.01, -42512.26, -38291.80, -8636.92, -28315.84, -17888.26, -48379.59, 0.000, 0.000, 0.000, 20:26:46.015
246, -37707.48, -31434.51, -42968.57, -38117.12, -9434.94, -28390.65, -18418.57, -48285.00, 0.000, 0.000, 0.000, 20:26:46.015
247, -37972.89, -31559.70, -43345.75, -38076.91, -9727.28, -28902.19, -19057.61, -48228.16, 0.000, 0.000, 0.000, 20:26:46.015
248, -38153.22, -31870.68, -43121.90, -38218.22, -9125.37, -29130.98, -18925.74, -48281.24, 0.000, 0.000, 0.000, 20:26:46.015
249, -38019.82, -31952.35, -42604.41, -38352.95, -8442.16, -28772.82, -18200.73, -48380.93, 0.000, 0.000, 0.000, 20:26:46.016
250, -37740.96, -31678.86, -42500.19, -38284.36, -8622.52, -28304.82, -17870.46, -48382.52, 0.000, 0.000, 0.000, 20:26:46.016
251, -37701.63, -31420.20, -42972.52, -38098.57, -9435.61, -28408.26, -18439.25, -48282.02, 0.000, 0.000, 0.000, 20:26:46.016
252, -37961.17, -31543.92, -43345.64, -38063.01, -9727.95, -28924.74, -19091.99, -48225.96, 0.000, 0.000, 0.000, 20:26:46.016
253, -38143.61, -31860.64, -43117.41, -38216.65, -9124.29, -29144.37, -18951.93, -48283.99, 0.000, 0.000, 0.000, 20:26:46.016
254, -38016.52, -31947.50, -42603.47, -38354.23, -8445.38, -28782.97, -18221.07, -48383.34, 0.226, 0.870, -0.504, 20:26:46.016
255, -37735.06, -31669.72, -42494.31, -38279.39, -8612.95, -28313.42, -17886.13, -48372.73, 0.000, 0.000, 0.000, 20:26:46.016
0, -37687.48, -31409.61, -42947.18, -38095.51, -9404.50, -28381.60, -18409.99, -48268.01, 0.000, 0.000, 0.000, 20:26:46.016
1, -37963.30, -31543.99, -43330.78, -38066.02, -9721.76, -28891.24, -19049.43, -48226.84, 0.000, 0.000, 0.000, 20:26:46.017
2, -38156.82, -31861.38, -43128.74, -38213.41, -9147.50, -29145.78, -18951.24, -48287.23, 0.000, 0.000, 0.000, 20:26:46.017
3, -38020.07, -31943.79, -42598.87, -38347.01, -8446.92, -28772.68, -18214.84, -48372.57, 0.000, 0.000, 0.000, 20:26:46.017
4, -37743.29, -31675.57, -42490.89, -38284.27, -8620.31, -28300.12, -17875.43, -48377.04, 0.000, 0.000, 0.000, 20:26:46.017
5, -37698.18, -31423.76, -42948.47, -38109.25, -9422.42, -28374.26, -18398.08, -48286.56, 0.000, 0.000, 0.000, 20:26:46.017
6, -37963.30, -31543.70, -43332.70, -38060.23, -9728.98, -28899.62, -19053.48, -48228.02, 0.000, 0.000, 0.000, 20:26:46.017
7, -38146.27, -31857.78, -43115.04, -38208.09, -9129.03, -29135.19, -18936.53, -48281.42, 0.000, 0.000, 0.000, 20:26:46.018
8, -38019.69, -31944.44, -42591.72, -38344.73, -8439.93, -28765.87, -18201.27, -48368.32, 0.222, 0.866, -0.500, 20:26:46.018
9, -37746.04, -31672.60, -42488.96, -38276.22, -8621.09, -28303.23, -17879.16, -48373.51, 0.000, 0.000, 0.000, 20:26:46.018
10, -37702.12, -31422.26, -42948.47, -38101.12, -9424.57, -28377.51, -18406.82, -48283.28, 0.000, 0.000, 0.000, 20:26:46.018
11, -37970.58, -31549.71, -43337.17, -38061.36, -9732.62, -28906.26, -19066.87, -48225.54, 0.000, 0.000, 0.000, 20:26:46.018
12, -38162.14, -31870.59, -43121.30, -38213.79, -9135.98, -29150.45, -18952.69, -48285.67, 0.000, 0.000, 0.000, 20:26:46.018
13, -38034.26, -31959.51, -42600.03, -38357.27, -8444.69, -28785.83, -18221.21, -48383.07, 0.000, 0.000, 0.000, 20:26:46.018
14, -37760.79, -31691.31, -42496.21, -38295.46, -8627.19, -28313.71, -17882.76, -48398.10, 0.000, 0.000, 0.000, 20:26:46.019
15, -37711.77, -31430.62, -42957.77, -38109.59, -9433.08, -28397.02, -18425.01, -48300.87, 0.000, 0.000, 0.000, 20:26:46.019
16, -37968.46, -31552.01, -43333.91, -38064.57, -9728.73, -28907.76, -19073.10, -48224.73, 0.000, 0.000, 0.000, 20:26:46.019
17, -38158.32, -31874.62, -43116.49, -38219.31, -9131.25, -29137.42, -18944.80, -48284.44, 0.000, 0.000, 0.000, 20:26:46.019
18, -38029.21, -31958.46, -42593.89, -38353.27, -8442.83, -28771.14, -18211.84, -48374.45, 0.224, 0.874, -0.500, 20:26:46.019
19, -37747.60, -31685.27, -42477.86, -38283.22, -8611.61, -28281.93, -17857.26, -48369.93, 0.000, 0.000, 0.000, 20:26:46.020
20, -37706.16, -31433.62, -42945.19, -38105.45, -9420.41, -28364.72, -18387.42, -48280.46, 0.000, 0.000, 0.000, 20:26:46.020
21, -37980.86, -31565.02, -43332.25, -38069.31, -9725.22, -28891.04, -19039.26, -48227.26, 0.000, 0.000, 0.000, 20:26:46.020
22, -38173.14, -31885.57, -43124.05, -38220.86, -9137.01, -29139.79, -18932.73, -48281.11, 0.000, 0.000, 0.000, 20:26:46.020
23, -38044.07, -31977.61, -42601.53, -38364.18, -8443.91, -28768.19, -18192.96, -48381.42, 0.000, 0.000, 0.000, 20:26:46.021
24, -37762.96, -31697.97, -42494.49, -38290.46, -8613.00, -28302.11, -17862.33, -48375.88, 0.000, 0.000, 0.000, 20:26:46.021
25, -37715.28, -31439.47, -42954.66, -38108.65, -9419.83, -28386.58, -18403.51, -48276.23, 0.000, 0.000, 0.000, 20:26:46.021
26, -37980.04, -31567.35, -43326.98, -38072.66, -9718.78, -28891.42, -19042.10, -48224.85, 0.000, 0.000, 0.000, 20:26:46.021
27, -38170.63, -31881.48, -43115.55, -38217.66, -9126.91, -29126.45, -18915.63, -48283.72, 0.000, 0.000, 0.000, 20:26:46.021
28, -38031.31, -31955.86, -42592.99, -38345.67, -8434.34, -28766.11, -18194.10, -48365.78, 0.224, 0.868, -0.498, 20:26:46.022
29, -37756.10, -31684.58, -42486.75, -38279.84, -8618.72, -28298.31, -17863.76, -48372.13, 0.000, 0.000, 0.000, 20:26:46.022
30, -37711.95, -31429.59, -42950.80, -38102.13, -9432.30, -28395.68, -18423.22, -48279.21, 0.000, 0.000, 0.000, 20:26:46.022
31, -37975.68, -31559.28, -43324.25, -38068.13, -9726.12, -28901.34, -19062.91, -48223.06, 0.000, 0.000, 0.000, 20:26:46.022
32, -38163.97, -31870.93, -43114.93, -38209.48, -9127.16, -29143.16, -18947.69, -48280.30, 0.000, 0.000, 0.000, 20:26:46.022
33, -38024.83, -31948.33, -42583.94, -38341.20, -8431.06, -28766.20, -18206.90, -48370.56, 0.000, 0.000, 0.000, 20:26:46.022
34, -37738.91, -31670.95, -42463.30, -38272.04, -8608.42, -28276.63, -17847.85, -48375.03, 0.000, 0.000, 0.000, 20:26:46.023
35, -37698.14, -31419.47, -42937.63, -38096.00, -9431.45, -28371.22, -18397.79, -48281.75, 0.000, 0.000, 0.000, 20:26:46.023
36, -37960.41, -31544.68, -43315.94, -38056.01, -9729.40, -28881.31, -19042.70, -48219.17, 0.000, 0.000, 0.000, 20:26:46.023
37, -38150.05, -31861.18, -43097.11, -38204.98, -9127.74, -29108.59, -18908.21, -48276.70, 0.000, 0.000, 0.000, 20:26:46.023
38, -38015.46, -31942.72, -42579.71, -38340.04, -8446.70, -28755.09, -18187.97, -48373.46, 0.220, 0.868, -0.502, 20:26:46.023
39, -37736.36, -31668.78, -42467.84, -38272.73, -8624.02, -28284.97, -17850.30, -48373.80, 0.000, 0.000, 0.000, 20:26:46.024
40, -37689.20, -31409.50, -42934.37, -38087.84, -9430.47, -28383.16, -18408.58, -48273.26, 0.000, 0.000, 0.000, 20:26:46.024
41, -37949.42, -31538.13, -43301.00, -38054.43, -9721.58, -28873.65, -19028.89, -48217.98, 0.000, 0.000, 0.000, 20:26:46.024
42, -38143.43, -31855.93, -43098.23, -38203.18, -9134.31, -29119.94, -18914.36, -48280.59, 0.000, 0.000, 0.000, 20:26:46.024
43, -38016.47, -31943.90, -42583.22, -38344.91, -8445.52, -28765.91, -18194.23, -48380.44, 0.000, 0.000, 0.000, 20:26:46.024
44, -37737.79, -31674.70, -42472.92, -38281.43, -8618.47, -28292.46, -17854.04, -48374.80, 0.000, 0.000, 0.000, 20:26:46.024
45, -37694.07, -31421.32, -42931.46, -38103.40, -9423.58, -28364.61, -18381.56, -48280.88, 0.000, 0.000, 0.000, 20:26:46.025
46, -37960.66, -31544.05, -43311.15, -38058.94, -9725.51, -28879.48, -19030.65, -48220.98, 0.000, 0.000, 0.000, 20:26:46.025
47, -38149.31, -31859.86, -43099.77, -38204.43, -9130.98, -29122.76, -18917.31, -48274.60, 0.000, 0.000, 0.000, 20:26:46.025
48, -38019.33, -31946.92, -42581.28, -38341.71, -8436.15, -28755.21, -18184.95, -48371.77, 0.222, 0.866, -0.504, 20:26:46.025
49, -37739.46, -31670.72, -42473.36, -38269.43, -8608.86, -28285.15, -17855.11, -48367.52, 0.000, 0.000, 0.000, 20:26:46.025
50, -37690.63, -31415.06, -42928.36, -38092.07, -9409.50, -28353.90, -18383.10, -48271.21, 0.000, 0.000, 0.000, 20:26:46.025
51, -37962.36, -31543.76, -43315.76, -38057.11, -9720.04, -28872.55, -19035.95, -48221.43, 0.000, 0.000, 0.000, 20:26:46.025
52, -38160.37, -31869.88, -43101.11, -38217.77, -9129.32, -29100.81, -18897.26, -48285.60, 0.000, 0.000, 0.000, 20:26:46.026
53, -38033.14, -31953.14, -42593.59, -38348.84, -8448.94, -28760.05, -18184.64, -48379.68, 0.000, 0.000, 0.000, 20:26:46.026
54, -37749.88, -31681.29, -42477.57, -38281.21, -8611.90, -28281.73, -17837.18, -48375.30, 0.000, 0.000, 0.000, 20:26:46.026
55, -37700.46, -31417.81, -42942.13, -38090.63, -9416.25, -28373.19, -18390.95, -48274.43, 0.000, 0.000, 0.000, 20:26:46.026
56, -37961.42, -31542.00, -43319.31, -38049.75, -9717.29, -28885.40, -19046.84, -48212.87, 0.000, 0.000, 0.000, 20:26:46.026
57, -38150.11, -31856.44, -43102.28, -38193.68, -9122.73, -29120.46, -18933.60, -48263.70, 0.000, 0.000, 0.000, 20:26:46.027
58, -38020.70, -31939.68, -42571.82, -38330.20, -8422.09, -28730.35, -18174.81, -48356.66, 0.228, 0.864, -0.502, 20:26:46.027
59, -37744.27, -31667.10, -42466.57, -38263.55, -8604.33, -28263.85, -17840.20, -48361.89, 0.000, 0.000, 0.000, 20:26:46.027
60, -37701.76, -31415.67, -42934.88, -38089.09, -9419.92, -28356.65, -18393.63, -48272.12, 0.000, 0.000, 0.000, 20:26:46.027
61, -37967.43, -31544.48, -43316.36, -38058.38, -9726.05, -28868.30, -19043.24, -48220.02, 0.000, 0.000, 0.000, 20:26:46.027
62, -38162.94, -31865.07, -43111.20, -38210.21, -9138.78, -29110.40, -18923.93, -48283.52, 0.000, 0.000, 0.000, 20:26:46.028
63, -38024.85, -31942.12, -42586.11, -38336.39, -8435.10, -28753.73, -18199.66, -48362.71, 0.000, 0.000, 0.000, 20:26:46.028
64, -37744.32, -31674.99, -42466.73, -38274.84, -8594.18, -28273.99, -17848.38, -48371.68, 0.000, 0.000, 0.000, 20:26:46.028
65, -37702.23, -31422.13, -42934.66, -38100.71, -9414.46, -28361.59, -18395.64, -48286.41, 0.000, 0.000, 0.000, 20:26:46.028
66, -37962.13, -31543.16, -43309.32, -38056.23, -9721.65, -28864.30, -19036.24, -48222.30, 0.000, 0.000, 0.000, 20:26:46.029
67, -38154.16, -31861.94, -43100.00, -38205.75, -9133.01, -29100.18, -18913.53, -48276.19, 0.224, 0.858, -0.504, 20:26:46.029
68, -38027.67, -31944.04, -42592.16, -38340.04, -8450.03, -28757.87, -18202.84, -48370.49, 0.000, 0.000, 0.000, 20:26:46.029
69, -37739.94, -31667.01, -42476.07, -38271.82, -8611.39, -28284.16, -17870.20, -48368.86, 0.000, 0.000, 0.000, 20:26:46.029
70, -37692.91, -31411.75, -42917.83, -38096.65, -9399.67, -28332.11, -18369.91, -48276.57, 0.000, 0.000, 0.000, 20:26:46.029
71, -37960.75, -31532.12, -43312.05, -38054.00, -9723.50, -28864.08, -19035.62, -48229.92, 0.000, 0.000, 0.000, 20:26:46.030
72, -38152.41, -31848.35, -43105.79, -38203.04, -9138.67, -29116.37, -18935.53, -48285.04, 0.000, 0.000, 0.000, 20:26:46.030
73, -38018.80, -31928.37, -42579.49, -38329.82, -8442.95, -28752.81, -18203.89, -48366.87, 0.000, 0.000, 0.000, 20:26:46.030
74, -37744.81, -31665.51, -42471.75, -38275.13, -8620.38, -28288.95, -17874.18, -48373.82, 0.000, 0.000, 0.000, 20:26:46.030
75, -37695.39, -31408.31, -42922.63, -38098.12, -9423.74, -28355.22, -18394.05, -48277.55, 0.000, 0.000, 0.000, 20:26:46.030
76, -37955.65, -31528.39, -43304.63, -38055.74, -9736.46, -28868.24, -19046.05, -48219.42, 0.000, 0.000, 0.000, 20:26:46.031
77, -38147.81, -31851.66, -43094.65, -38208.99, -9150.33, -29105.90, -18921.87, -48280.35, 0.222, 0.858, -0.504, 20:26:46.031
78, -38014.04, -31933.36, -42573.05, -38338.56, -8452.00, -28740.52, -18183.84, -48367.99, 0.000, 0.000, 0.000, 20:26:46.031
79, -37734.15, -31661.16, -42459.95, -38273.52, -8614.18, -28264.88, -17836.83, -48367.07, 0.000, 0.000, 0.000, 20:26:46.031
80, -37688.68, -31405.25, -42921.09, -38096.82, -9420.92, -28344.87, -18372.73, -48277.60, 0.000, 0.000, 0.000, 20:26:46.032
81, -37959.09, -31531.63, -43318.98, -38056.39, -9742.14, -28874.70, -19046.95, -48224.60, 0.000, 0.000, 0.000, 20:26:46.032
82, -38147.00, -31847.26, -43107.59, -38204.25, -9147.70, -29114.58, -18934.59, -48277.11, 0.000, 0.000, 0.000, 20:26:46.032
83, -38026.30, -31942.61, -42584.96, -38348.55, -8447.95, -28742.11, -18188.15, -48368.68, 0.000, 0.000, 0.000, 20:26:46.032
84, -37746.55, -31665.29, -42477.21, -38276.60, -8619.82, -28280.48, -17859.38, -48366.13, 0.000, 0.000, 0.000, 20:26:46.032
85, -37695.12, -31408.04, -42929.14, -38101.50, -9416.32, -28352.16, -18386.48, -48277.29, 0.000, 0.000, 0.000, 20:26:46.032
86, -37961.51, -31530.33, -43318.66, -38058.36, -9733.02, -28878.16, -19050.88, -48224.13, 0.000, 0.000, 0.000, 20:26:46.033
87, -38151.05, -31843.61, -43113.59, -38201.01, -9145.44, -29136.04, -18960.36, -48273.20, 0.220, 0.862, -0.504, 20:26:46.033
88, -38023.58, -31933.62, -42589.37, -38340.21, -8446.57, -28770.36, -18229.12, -48366.76, 0.000, 0.000, 0.000, 20:26:46.033
89, -37741.84, -31663.12, -42469.27, -38277.43, -8609.13, -28286.65, -17876.46, -48364.52, 0.000, 0.000, 0.000, 20:26:46.033
90, -37694.05, -31405.18, -42931.42, -38097.23, -9412.25, -28359.74, -18404.74, -48272.14, 0.000, 0.000, 0.000, 20:26:46.034
91, -37951.14, -31521.86, -43312.67, -38050.91, -9721.76, -28867.14, -19054.77, -48211.73, 0.000, 0.000, 0.000, 20:26:46.034
92, -38145.02, -31843.26, -43103.97, -38204.07, -9142.67, -29102.37, -18929.40, -48272.43, 0.000, 0.000, 0.000, 20:26:46.034
93, -38015.87, -31931.86, -42590.00, -38344.91, -8454.59, -28750.42, -18204.73, -48367.07, 0.000, 0.000, 0.000, 20:26:46.034
94, -37728.78, -31653.69, -42470.57, -38272.27, -8612.40, -28275.92, -17861.39, -48360.50, 0.000, 0.000, 0.000, 20:26:46.034
95, -37679.34, -31394.90, -42925.83, -38091.53, -9413.66, -28355.40, -18402.79, -48264.84, 0.000, 0.000, 0.000, 20:26:46.035
96, -37944.30, -31517.19, -43309.97, -38050.34, -9726.72, -28875.03, -19066.13, -48208.15, 0.000, 0.000, 0.000, 20:26:46.035
97, -38142.63, -31836.73, -43108.09, -38201.39, -9147.76, -29118.31, -18959.89, -48271.07, 0.222, 0.876, -0.504, 20:26:46.035
98, -38018.66, -31935.75, -42588.25, -38353.87, -8456.27, -28749.44, -18217.68, -48369.11, 0.000, 0.000, 0.000, 20:26:46.035
99, -37737.43, -31667.08, -42472.02, -38289.77, -8622.83, -28266.13, -17854.37, -48364.39, 0.000, 0.000, 0.000, 20:26:46.035
100, -37685.35, -31398.72, -42928.80, -38102.50, -9424.79, -28344.16, -18388.06, -48258.27, 0.000, 0.000, 0.000, 20:26:46.036
101, -37949.89, -31517.05, -43311.76, -38060.19, -9735.10, -28864.77, -19052.13, -48205.69, 0.000, 0.000, 0.000, 20:26:46.036
102, -38134.96, -31829.26, -43105.00, -38203.60, -9147.72, -29118.71, -18953.07, -48255.00, 0.000, 0.000, 0.000, 20:26:46.036
103, -38009.57, -31923.50, -42582.46, -38349.98, -8450.48, -28759.34, -18221.12, -48359.11, 0.000, 0.000, 0.000, 20:26:46.036
104, -37731.91, -31654.45, -42462.12, -38288.00, -8608.37, -28284.32, -17872.97, -48366.51, 0.000, 0.000, 0.000, 20:26:46.493
105, -37676.48, -31392.53, -42902.85, -38109.70, -9403.27, -28339.60, -18378.07, -48268.03, 0.000, 0.000, 0.000, 20:26:46.493
106, -37938.82, -31509.66, -43292.02, -38064.15, -9721.65, -28859.72, -19033.22, -48211.14, 0.000, 0.000, 0.000, 20:26:46.493
107, -38135.63, -31833.11, -43095.30, -38218.55, -9140.88, -29120.21, -18935.21, -48274.20, 0.214, 0.872, -0.502, 20:26:46.493
108, -38008.20, -31921.62, -42579.18, -38356.33, -8447.60, -28773.53, -18217.61, -48363.16, 0.000, 0.000, 0.000, 20:26:46.493
109, -37725.32, -31652.95, -42457.70, -38293.92, -8600.68, -28289.80, -17864.38, -48364.17, 0.000, 0.000, 0.000, 20:26:46.493
110, -37674.94, -31396.20, -42908.29, -38116.23, -9400.12, -28350.37, -18376.24, -48273.20, 0.000, 0.000, 0.000, 20:26:46.493
111, -37943.79, -31516.63, -43309.68, -38071.77, -9726.94, -28890.05, -19055.13, -48217.09, 0.000, 0.000, 0.000, 20:26:46.494
112, -38129.06, -31825.24, -43101.07, -38212.90, -9134.49, -29138.72, -18951.64, -48267.79, 0.000, 0.000, 0.000, 20:26:46.494
113, -38001.79, -31915.09, -42579.07, -38352.11, -8437.58, -28772.88, -18211.66, -48358.98, 0.000, 0.000, 0.000, 20:26:46.494
114, -37728.43, -31650.94, -42476.88, -38292.20, -8611.32, -28313.91, -17886.83, -48367.86, 0.000, 0.000, 0.000, 20:26:46.494
115, -37675.47, -31395.13, -42926.50, -38115.20, -9414.64, -28380.77, -18417.88, -48272.32, 0.000, 0.000, 0.000, 20:26:46.494
116, -37934.48, -31511.04, -43305.34, -38068.06, -9728.37, -28884.40, -19061.39, -48213.27, 0.000, 0.000, 0.000, 20:26:46.495
117, -38124.39, -31823.90, -43101.31, -38211.45, -9147.34, -29136.71, -18960.58, -48263.94, 0.218, 0.860, -0.500, 20:26:46.495
118, -38002.79, -31916.99, -42580.32, -38353.89, -8447.53, -28773.24, -18219.67, -48359.20, 0.000, 0.000, 0.000, 20:26:46.495
119, -37721.52, -31640.93, -42470.10, -38285.00, -8615.48, -28307.72, -17882.80, -48365.51, 0.000, 0.000, 0.000, 20:26:46.495
120, -37663.96, -31379.14, -42917.16, -38105.07, -9412.45, -28375.92, -18415.47, -48271.77, 0.000, 0.000, 0.000, 20:26:46.495
121, -37934.78, -31508.67, -43302.95, -38070.18, -9730.65, -28880.73, -19059.69, -48220.02, 0.000, 0.000, 0.000, 20:26:46.495
122, -38135.09, -31828.66, -43111.91, -38215.13, -9157.06, -29141.87, -18962.35, -48275.68, 0.000, 0.000, 0.000, 20:26:46.496
123, -38009.12, -31917.89, -42594.20, -38352.22, -8456.96, -28792.09, -18238.64, -48352.68, 0.000, 0.000, 0.000, 20:26:46.496
124, -37725.88, -31649.18, -42465.30, -38288.52, -8603.32, -28297.38, -17871.00, -48356.75, 0.000, 0.000, 0.000, 20:26:46.496
125, -37669.98, -31386.72, -42911.59, -38107.40, -9401.41, -28356.07, -18386.75, -48265.51, 0.000, 0.000, 0.000, 20:26:46.496
126, -37931.00, -31502.68, -43303.31, -38058.83, -9721.82, -28874.70, -19042.81, -48198.00, 0.000, 0.000, 0.000, 20:26:46.496
127, -38125.79, -31820.70, -43106.93, -38203.58, -9138.11, -29128.70, -18945.88, -48246.73, 0.214, 0.862, -0.500, 20:26:46.496
128, -38003.29, -31911.25, -42594.18, -38339.30, -8445.85, -28780.98, -18227.36, -48344.70, 0.000, 0.000, 0.000, 20:26:46.496
129, -37723.86, -31648.08, -42475.67, -38283.33, -8608.80, -28312.10, -17886.58, -48354.85, 0.000, 0.000, 0.000, 20:26:46.496
130, -37673.84, -31392.53, -42921.14, -38102.88, -9403.54, -28367.96, -18402.91, -48255.52, 0.000, 0.000, 0.000, 20:26:46.497
131, -37945.17, -31519.80, -43315.69, -38063.99, -9730.34, -28890.48, -19066.42, -48202.63, 0.000, 0.000, 0.000, 20:26:46.497
132, -38134.71, -31835.48, -43111.60, -38210.48, -9145.13, -29136.06, -18956.78, -48253.55, 0.000, 0.000, 0.000, 20:26:46.497
133, -38011.58, -31932.62, -42590.38, -38354.39, -8446.66, -28769.18, -18207.51, -48350.67, 0.000, 0.000, 0.000, 20:26:46.497
134, -37731.55, -31660.42, -42473.27, -38286.01, -8609.49, -28297.55, -17856.56, -48355.72, 0.000, 0.000, 0.000, 20:26:46.497
135, -37674.71, -31395.55, -42918.95, -38103.62, -9404.23, -28361.05, -18379.91, -48258.84, 0.000, 0.000, 0.000, 20:26:46.498
136, -37942.80, -31514.06, -43316.16, -38060.50, -9733.16, -28893.45, -19061.43, -48204.64, 0.216, 0.866, -0.498, 20:26:46.498
137, -38133.35, -31834.56, -43106.93, -38218.55, -9144.37, -29136.19, -18951.80, -48261.19, 0.000, 0.000, 0.000, 20:26:46.498
138, -38010.41, -31925.22, -42586.69, -38357.63, -8442.68, -28770.36, -18199.93, -48355.14, 0.000, 0.000, 0.000, 20:26:46.498
139, -37722.46, -31650.40, -42461.47, -38290.26, -8596.08, -28289.69, -17838.46, -48353.64, 0.000, 0.000, 0.000, 20:26:46.498
140, -37666.09, -31383.32, -42911.26, -38103.42, -9401.97, -28362.26, -18366.45, -48255.40, 0.000, 0.000, 0.000, 20:26:46.499
141, -37930.82, -31508.72, -43296.80, -38072.78, -9726.27, -28880.22, -19028.75, -48206.32, 0.000, 0.000, 0.000, 20:26:46.499
142, -38130.20, -31828.14, -43100.55, -38217.77, -9150.80, -29130.45, -18919.95, -48264.77, 0.000, 0.000, 0.000, 20:26:46.499
143, -38000.22, -31912.68, -42587.07, -38347.86, -8461.66, -28787.75, -18205.76, -48347.54, 0.000, 0.000, 0.000, 20:26:46.499
144, -37720.56, -31652.44, -42458.66, -38295.76, -8606.52, -28293.78, -17834.77, -48357.33, 0.000, 0.000, 0.000, 20:26:46.499
145, -37670.27, -31391.93, -42907.05, -38114.06, -9401.84, -28349.03, -18343.16, -48269.39, 0.000, 0.000, 0.000, 20:26:46.499
146, -37933.05, -31507.17, -43299.89, -38067.75, -9729.27, -28867.59, -19006.51, -48214.86, 0.224, 0.870, -0.498, 20:26:46.499
147, -38129.68, -31823.56, -43108.80, -38213.37, -9157.67, -29132.23, -18922.90, -48265.59, 0.000, 0.000, 0.000, 20:26:46.499
148, -38003.20, -31916.50, -42587.07, -38352.73, -8456.74, -28780.87, -18203.21, -48346.96, 0.000, 0.000, 0.000, 20:26:46.499
149, -37719.82, -31648.10, -42459.30, -38291.00, -8605.96, -28296.23, -17845.05, -48350.33, 0.000, 0.000, 0.000, 20:26:46.500
150, -37665.13, -31385.98, -42911.91, -38110.89, -9407.25, -28364.72, -18370.94, -48268.68, 0.000, 0.000, 0.000, 20:26:46.500
151, -37925.52, -31502.17, -43296.71, -38061.33, -9729.47, -28875.12, -19026.12, -48211.84, 0.000, 0.000, 0.000, 20:26:46.500
152, -38121.55, -31820.68, -43096.49, -38204.45, -9150.22, -29122.85, -18921.24, -48258.29, 0.000, 0.000, 0.000, 20:26:46.500
153, -37996.60, -31906.98, -42586.98, -38335.50, -8455.02, -28785.22, -18215.55, -48348.54, 0.000, 0.000, 0.000, 20:26:46.500
154, -37707.39, -31635.29, -42453.23, -38273.14, -8595.63, -28301.49, -17865.39, -48348.48, 0.000, 0.000, 0.000, 20:26:46.500
155, -37659.83, -31381.63, -42896.82, -38100.47, -9390.03, -28352.76, -18371.81, -48255.25, 0.000, 0.000, 0.000, 20:26:46.500
156, -37928.65, -31506.73, -43286.86, -38059.07, -9715.68, -28858.11, -19020.04, -48199.41, 0.218, 0.864, -0.500, 20:26:46.500
157, -38130.98, -31829.51, -43100.67, -38210.15, -9148.77, -29118.78, -18928.55, -48261.10, 0.000, 0.000, 0.000, 20:26:46.500
158, -38010.86, -31923.47, -42586.02, -38352.04, -8452.33, -28767.34, -18202.68, -48358.22, 0.000, 0.000, 0.000, 20:26:46.501
159, -37722.64, -31647.48, -42461.27, -38283.64, -8601.49, -28290.11, -17854.04, -48354.62, 0.000, 0.000, 0.000, 20:26:46.501
160, -37668.14, -31386.99, -42917.20, -38107.87, -9407.67, -28363.71, -18388.80, -48265.08, 0.000, 0.000, 0.000, 20:26:46.501
161, -37928.11, -31505.70, -43303.17, -38066.88, -9729.18, -28874.70, -19047.51, -48206.56, 0.000, 0.000, 0.000, 20:26:46.501
162, -38131.49, -31831.50, -43107.62, -38220.45, -9155.39, -29126.89, -18947.19, -48263.54, 0.000, 0.000, 0.000, 20:26:46.501
163, -38004.71, -31917.31, -42589.91, -38349.58, -8458.82, -28776.46, -18224.72, -48345.75, 0.000, 0.000, 0.000, 20:26:46.501
164, -37719.04, -31645.58, -42455.59, -38282.55, -8600.10, -28286.49, -17858.75, -48347.07, 0.000, 0.000, 0.000, 20:26:46.502
165, -37666.53, -31386.56, -42898.74, -38106.64, -9392.29, -28341.29, -18363.79, -48260.01, 0.000, 0.000, 0.000, 20:26:46.502
166, -37923.15, -31496.13, -43290.34, -38052.19, -9714.60, -28864.01, -19032.04, -48195.61, 0.222, 0.868, -0.502, 20:26:46.502
167, -38121.77, -31821.42, -43090.00, -38205.99, -9129.10, -29111.29, -18920.79, -48251.69, 0.000, 0.000, 0.000, 20:26:46.502
168, -38011.60, -31923.03, -42588.95, -38351.59, -8453.59, -28774.61, -18207.93, -48358.02, 0.000, 0.000, 0.000, 20:26:46.502
169, -37722.64, -31647.59, -42458.39, -38281.32, -8601.71, -28290.36, -17852.03, -48350.91, 0.000, 0.000, 0.000, 20:26:46.503
170, -37667.56, -31383.44, -42901.58, -38101.25, -9397.54, -28343.24, -18365.67, -48251.71, 0.000, 0.000, 0.000, 20:26:46.503
171, -37932.61, -31503.15, -43296.54, -38062.92, -9727.75, -28858.80, -19025.18, -48205.71, 0.000, 0.000, 0.000, 20:26:46.503
172, -38132.93, -31825.89, -43104.89, -38215.16, -9157.69, -29113.21, -18921.87, -48271.34, 0.000, 0.000, 0.000, 20:26:46.503
173, -38004.56, -31910.29, -42588.61, -38346.00, -8460.18, -28774.00, -18210.55, -48355.23, 0.000, 0.000, 0.000, 20:26:46.503
174, -37715.48, -31636.52, -42462.08, -38279.02, -8603.48, -28301.69, -17866.58, -48350.11, 0.000, 0.000, 0.000, 20:26:46.503
175, -37659.13, -31376.55, -42901.42, -38101.88, -9393.92, -28349.59, -18372.44, -48245.37, 0.000, 0.000, 0.000, 20:26:46.503
176, -37930.17, -31499.89, -43296.87, -38062.27, -9727.97, -28862.72, -19029.54, -48195.16, 0.218, 0.866, -0.506, 20:26:46.503
177, -38128.54, -31818.65, -43106.28, -38207.94, -9156.66, -29124.68, -18940.73, -48253.44, 0.000, 0.000, 0.000, 20:26:46.503
178, -38002.17, -31910.27, -42579.67, -38343.90, -8449.65, -28762.13, -18198.10, -48343.89, 0.000, 0.000, 0.000, 20:26:46.504
179, -37715.41, -31638.16, -42446.50, -38280.85, -8588.79, -28276.68, -17831.69, -48344.25, 0.000, 0.000, 0.000, 20:26:46.504
180, -37665.08, -31383.39, -42896.66, -38108.85, -9393.23, -28337.18, -18343.96, -48258.29, 0.000, 0.000, 0.000, 20:26:46.504
181, -37930.39, -31503.04, -43291.82, -38069.45, -9727.50, -28853.55, -19003.34, -48209.38, 0.000, 0.000, 0.000, 20:26:46.504
182, -38131.56, -31824.05, -43101.74, -38216.50, -9155.90, -29115.47, -18907.81, -48263.41, 0.000, 0.000, 0.000, 20:26:46.504
183, -38003.22, -31911.45, -42584.00, -38349.65, -8455.28, -28774.03, -18194.81, -48348.81, 0.000, 0.000, 0.000, 20:26:46.504
184, -37713.96, -31645.02, -42440.53, -38291.64, -8585.77, -28269.41, -17810.41, -48350.18, 0.000, 0.000, 0.000, 20:26:46.504
185, -37665.35, -31387.30, -42899.07, -38112.29, -9392.09, -28338.08, -18330.35, -48264.79, 0.000, 0.000, 0.000, 20:26:46.504
186, -37927.42, -31505.68, -43297.70, -38070.29, -9728.19, -28862.94, -19007.39, -48202.47, 0.216, 0.872, -0.502, 20:26:46.504
187, -38115.63, -31818.73, -43090.79, -38211.89, -9141.91, -29099.42, -18891.89, -48248.56, 0.000, 0.000, 0.000, 20:26:46.505
188, -37990.21, -31906.58, -42574.86, -38345.78, -8437.58, -28755.96, -18169.89, -48336.34, 0.000, 0.000, 0.000, 20:26:46.505
189, -37709.11, -31640.26, -42454.43, -38287.84, -8580.32, -28287.32, -17828.29, -48346.20, 0.000, 0.000, 0.000, 20:26:46.505
190, -37655.56, -31380.64, -42904.82, -38110.93, -9383.64, -28348.09, -18347.52, -48257.04, 0.000, 0.000, 0.000, 20:26:46.505
191, -37914.04, -31491.51, -43296.69, -38060.13, -9715.27, -28870.23, -19022.83, -48195.03, 0.000, 0.000, 0.000, 20:26:46.505
192, -38110.64, -31814.91, -43092.11, -38211.33, -9130.15, -29105.61, -18908.05, -48252.68, 0.000, 0.000, 0.000, 20:26:46.505
193, -37995.37, -31915.00, -42579.78, -38355.84, -8437.36, -28757.15, -18180.28, -48354.20, 0.000, 0.000, 0.000, 20:26:46.505
194, -37712.89, -31647.34, -42453.41, -38292.49, -8590.11, -28282.76, -17829.58, -48356.50, 0.000, 0.000, 0.000, 20:26:46.505
195, -37658.93, -31385.74, -42905.13, -38111.22, -9396.52, -28349.01, -18355.21, -48263.81, 0.000, 0.000, 0.000, 20:26:46.505
196, -37906.46, -31490.77, -43281.80, -38058.63, -9709.87, -28846.42, -19003.70, -48197.04, 0.222, 0.868, -0.504, 20:26:46.505
197, -38116.56, -31818.98, -43093.85, -38214.15, -9142.89, -29101.19, -18906.49, -48270.20, 0.000, 0.000, 0.000, 20:26:46.506
198, -37997.65, -31916.19, -42576.76, -38351.70, -8445.74, -28753.55, -18179.95, -48373.09, 0.000, 0.000, 0.000, 20:26:46.506
199, -37713.36, -31646.22, -42442.21, -38284.07, -8584.39, -28268.90, -17810.79, -48354.11, 0.000, 0.000, 0.000, 20:26:46.506
200, -37668.48, -31392.02, -42898.41, -38114.51, -9392.22, -28337.16, -18330.02, -48259.31, 0.000, 0.000, 0.000, 20:26:46.506
201, -37927.60, -31507.51, -43294.68, -38067.70, -9722.20, -28858.16, -19001.13, -48202.36, 0.000, 0.000, 0.000, 20:26:46.506
202, -38124.63, -31824.39, -43099.95, -38207.89, -9152.30, -29122.58, -18919.57, -48257.39, 0.000, 0.000, 0.000, 20:26:46.506
203, -38001.81, -31917.20, -42580.59, -38344.26, -8447.10, -28780.89, -18210.95, -48348.18, 0.000, 0.000, 0.000, 20:26:46.506
204, -37717.36, -31652.44, -42441.58, -38288.25, -8573.68, -28284.43, -17837.47, -48353.21, 0.000, 0.000, 0.000, 20:26:46.506
205, -37668.25, -31393.22, -42893.98, -38110.15, -9380.47, -28343.51, -18351.41, -48264.54, 0.000, 0.000, 0.000, 20:26:46.506
206, -37931.82, -31507.29, -43292.22, -38063.54, -9720.42, -28866.18, -19027.50, -48201.78, 0.218, 0.870, -0.504, 20:26:46.507
207, -38125.88, -31824.32, -43095.91, -38209.99, -9143.20, -29115.27, -18931.21, -48254.46, 0.000, 0.000, 0.000, 20:26:46.507
208, -37997.56, -31913.35, -42569.05, -38343.12, -8432.13, -28745.93, -18182.61, -48346.75, 0.000, 0.000, 0.000, 20:26:46.507
209, -37717.14, -31647.86, -42445.18, -38281.74, -8581.13, -28271.69, -17833.76, -48351.71, 0.000, 0.000, 0.000, 20:26:46.507
210, -37664.30, -31394.46, -42887.50, -38112.02, -9372.58, -28318.83, -18334.17, -48257.17, 0.000, 0.000, 0.000, 20:26:46.507
211, -37925.84, -31507.26, -43283.70, -38064.24, -9701.91, -28832.39, -18988.07, -48198.43, 0.000, 0.000, 0.000, 20:26:46.507
212, -38121.95, -31819.94, -43089.27, -38207.91, -9131.34, -29091.08, -18890.33, -48250.46, 0.000, 0.000, 0.000, 20:26:46.507
213, -38002.08, -31916.12, -42572.74, -38349.67, -8437.31, -28751.29, -18167.92, -48343.96, 0.000, 0.000, 0.000, 20:26:46.507
214, -37722.79, -31655.46, -42447.55, -38294.93, -8587.36, -28276.10, -17811.59, -48358.09, 0.000, 0.000, 0.000, 20:26:46.507
215, -37674.13, -31393.52, -42904.55, -38118.35, -9397.19, -28346.68, -18345.73, -48268.86, 0.220, 0.872, -0.496, 20:26:46.508
216, -37934.39, -31504.09, -43297.96, -38065.31, -9726.83, -28861.51, -19014.56, -48201.18, 0.000, 0.000, 0.000, 20:26:46.508
217, -38128.14, -31819.83, -43102.32, -38207.11, -9146.18, -29115.22, -18927.37, -48250.98, 0.000, 0.000, 0.000, 20:26:46.508
218, -38010.73, -31922.38, -42579.71, -38352.78, -8441.23, -28754.85, -18193.13, -48350.98, 0.000, 0.000, 0.000, 20:26:46.508
219, -37733.54, -31660.26, -42454.14, -38290.13, -8590.49, -28279.74, -17841.99, -48353.19, 0.000, 0.000, 0.000, 20:26:46.508
220, -37679.92, -31400.33, -42904.53, -38115.73, -9391.89, -28334.84, -18356.24, -48264.50, 0.000, 0.000, 0.000, 20:26:46.508
221, -37938.73, -31513.66, -43296.27, -38068.26, -9722.27, -28840.72, -19012.15, -48205.31, 0.000, 0.000, 0.000, 20:26:46.508
222, -38132.86, -31831.99, -43098.48, -38211.67, -9144.59, -29093.39, -18908.99, -48259.49, 0.000, 0.000, 0.000, 20:26:46.508
223, -38012.65, -31926.25, -42578.35, -38347.46, -8440.91, -28746.62, -18179.39, -48345.64, 0.000, 0.000, 0.000, 20:26:46.508
224, -37732.22, -31664.29, -42452.40, -38290.82, -8589.40, -28271.76, -17820.08, -48344.68, 0.000, 0.000, 0.000, 20:26:46.974
225, -37670.31, -31400.09, -42895.54, -38113.34, -9382.66, -28324.06, -18324.81, -48254.22, 0.222, 0.868, -0.498, 20:26:46.974
226, -37937.14, -31515.94, -43293.96, -38066.74, -9719.68, -28840.95, -18981.17, -48198.79, 0.000, 0.000, 0.000, 20:26:46.974
227, -38133.30, -31829.35, -43103.50, -38208.65, -9147.88, -29110.69, -18898.04, -48239.06, 0.000, 0.000, 0.000, 20:26:46.974
228, -38014.28, -31927.34, -42581.66, -38348.86, -8436.87, -28765.33, -18169.75, -48336.79, 0.000, 0.000, 0.000, 20:26:46.974
229, -37725.18, -31661.76, -42442.72, -38288.45, -8565.57, -28268.34, -17790.96, -48344.72, 0.000, 0.000, 0.000, 20:26:46.974
230, -37676.05, -31400.89, -42907.10, -38110.30, -9383.60, -28337.23, -18319.98, -48256.32, 0.000, 0.000, 0.000, 20:26:46.974
231, -37932.77, -31510.06, -43303.93, -38062.32, -9725.45, -28855.81, -18997.66, -48191.30, 0.000, 0.000, 0.000, 20:26:46.974
232, -38131.98, -31828.71, -43112.78, -38210.46, -9158.18, -29114.20, -18913.17, -48246.24, 0.000, 0.000, 0.000, 20:26:46.975
233, -38009.16, -31924.86, -42584.36, -38350.41, -8443.95, -28755.45, -18176.39, -48336.45, 0.000, 0.000, 0.000, 20:26:46.975
234, -37734.28, -31667.97, -42448.51, -38300.70, -8582.31, -28263.51, -17797.67, -48351.80, 0.000, 0.000, 0.000, 20:26:46.975
235, -37683.18, -31409.14, -42899.16, -38124.57, -9383.64, -28319.21, -18303.75, -48264.23, 0.222, 0.872, -0.500, 20:26:46.975
236, -37939.02, -31513.03, -43308.31, -38068.33, -9729.31, -28853.44, -18993.97, -48195.41, 0.000, 0.000, 0.000, 20:26:46.975
237, -38132.48, -31832.64, -43113.68, -38217.04, -9152.12, -29111.29, -18904.57, -48247.11, 0.000, 0.000, 0.000, 20:26:46.975
238, -38015.15, -31934.90, -42589.71, -38360.33, -8439.57, -28756.93, -18171.65, -48342.95, 0.000, 0.000, 0.000, 20:26:46.975
239, -37732.25, -31669.69, -42451.04, -38300.36, -8573.39, -28261.99, -17796.26, -48351.00, 0.000, 0.000, 0.000, 20:26:46.975
240, -37674.33, -31398.66, -42899.05, -38113.84, -9379.40, -28317.58, -18307.60, -48256.34, 0.000, 0.000, 0.000, 20:26:46.976
241, -37934.57, -31507.08, -43299.06, -38062.94, -9723.43, -28843.18, -18987.94, -48193.94, 0.000, 0.000, 0.000, 20:26:46.976
242, -38127.29, -31815.74, -43105.88, -38198.84, -9147.54, -29115.81, -18917.89, -48239.40, 0.000, 0.000, 0.000, 20:26:46.976
243, -38003.71, -31916.46, -42579.94, -38345.55, -8435.01, -28762.71, -18195.01, -48336.05, 0.000, 0.000, 0.000, 20:26:46.976
244, -37720.45, -31652.64, -42439.52, -38285.39, -8573.55, -28259.89, -17807.79, -48346.24, 0.000, 0.000, 0.000, 20:26:46.976
245, -37663.67, -31386.99, -42887.16, -38105.66, -9381.70, -28314.74, -18320.81, -48253.91, 0.216, 0.864, -0.504, 20:26:46.976
246, -37933.46, -31510.68, -43294.10, -38069.42, -9728.98, -28837.66, -18996.79, -48204.71, 0.000, 0.000, 0.000, 20:26:46.976
247, -38136.30, -31831.90, -43112.27, -38214.69, -9163.57, -29112.79, -18927.39, -48255.45, 0.000, 0.000, 0.000, 20:26:46.976
248, -38014.88, -31931.81, -42586.04, -38359.64, -8442.32, -28758.11, -18192.02, -48349.66, 0.000, 0.000, 0.000, 20:26:46.977
249, -37732.36, -31666.79, -42451.64, -38299.47, -8586.91, -28275.71, -17821.67, -48348.01, 0.000, 0.000, 0.000, 20:26:46.977
250, -37668.48, -31396.06, -42887.14, -38112.90, -9389.72, -28319.79, -18321.23, -48254.17, 0.000, 0.000, 0.000, 20:26:46.977
251, -37930.26, -31508.34, -43288.49, -38067.01, -9728.80, -28839.70, -18992.50, -48195.70, 0.000, 0.000, 0.000, 20:26:46.977
252, -38139.36, -31833.20, -43116.16, -38214.55, -9170.63, -29124.48, -18931.30, -48245.72, 0.000, 0.000, 0.000, 20:26:46.977
253, -38012.87, -31926.27, -42598.98, -38350.36, -8456.83, -28793.90, -18231.89, -48331.06, 0.000, 0.000, 0.000, 20:26:46.977
254, -37729.30, -31665.96, -42445.69, -38297.37, -8575.02, -28278.44, -17829.63, -48344.16, 0.000, 0.000, 0.000, 20:26:46.977
255, -37676.48, -31401.99, -42893.00, -38113.57, -9379.84, -28329.58, -18331.60, -48255.76, 0.218, 0.862, -0.506, 20:26:46.978
0, -37939.83, -31514.04, -43298.70, -38065.06, -9728.69, -28858.54, -19016.39, -48190.94, 0.000, 0.000, 0.000, 20:26:46.978
1, -38136.93, -31833.51, -43106.41, -38213.34, -9157.51, -29120.97, -18933.36, -48246.15, 0.000, 0.000, 0.000, 20:26:46.978
2, -38024.88, -31936.08, -42588.21, -38356.35, -8448.42, -28784.29, -18217.99, -48343.56, 0.000, 0.000, 0.000, 20:26:46.978
3, -37746.29, -31681.67, -42442.47, -38306.22, -8572.45, -28288.23, -17830.48, -48350.93, 0.000, 0.000, 0.000, 20:26:46.978
4, -37691.05, -31416.74, -42894.02, -38124.77, -9382.50, -28338.59, -18335.05, -48259.02, 0.000, 0.000, 0.000, 20:26:46.978
5, -37946.67, -31525.39, -43297.25, -38076.20, -9729.40, -28858.25, -19012.84, -48197.78, 0.000, 0.000, 0.000, 20:26:46.978
6, -38135.70, -31836.62, -43102.41, -38216.59, -9156.03, -29119.09, -18924.19, -48245.68, 0.000, 0.000, 0.000, 20:26:46.978
7, -38014.93, -31936.39, -42573.84, -38361.36, -8442.39, -28764.28, -18182.45, -48340.54, 0.000, 0.000, 0.000, 20:26:46.979
8, -37735.15, -31669.38, -42439.01, -38295.45, -8582.04, -28287.36, -17816.33, -48345.79, 0.000, 0.000, 0.000, 20:26:46.979
9, -37679.63, -31408.42, -42884.21, -38123.52, -9387.58, -28333.90, -18322.55, -48256.92, 0.216, 0.862, -0.506, 20:26:46.979
10, -37935.91, -31513.95, -43281.89, -38071.50, -9721.60, -28831.98, -18976.23, -48197.45, 0.000, 0.000, 0.000, 20:26:46.979
11, -38135.76, -31830.38, -43101.11, -38212.63, -9151.30, -29106.71, -18904.97, -48244.65, 0.000, 0.000, 0.000, 20:26:46.979
12, -38024.70, -31937.89, -42588.05, -38360.35, -8446.77, -28779.28, -18199.97, -48342.26, 0.000, 0.000, 0.000, 20:26:46.979
13, -37741.68, -31676.76, -42440.57, -38305.50, -8570.64, -28277.04, -17807.23, -48349.53, 0.000, 0.000, 0.000, 20:26:46.979
14, -37684.28, -31406.37, -42885.08, -38124.57, -9371.26, -28317.89, -18301.41, -48258.49, 0.000, 0.000, 0.000, 20:26:46.979
15, -37936.86, -31507.51, -43282.63, -38073.18, -9715.57, -28831.89, -18969.99, -48196.46, 0.000, 0.000, 0.000, 20:26:46.979
16, -38134.24, -31823.03, -43106.16, -38215.65, -9157.78, -29113.91, -18911.54, -48247.98, 0.000, 0.000, 0.000, 20:26:46.980
17, -38018.73, -31930.52, -42587.83, -38361.87, -8445.05, -28775.01, -18197.20, -48345.48, 0.000, 0.000, 0.000, 20:26:46.980
18, -37731.66, -31662.85, -42438.07, -38297.63, -8565.61, -28270.31, -17808.19, -48346.17, 0.000, 0.000, 0.000, 20:26:46.980
19, -37675.63, -31393.52, -42887.61, -38115.49, -9376.74, -28321.65, -18320.88, -48254.15, 0.220, 0.864, -0.498, 20:26:46.980
20, -37928.18, -31496.27, -43279.30, -38057.80, -9716.62, -28833.21, -18992.75, -48188.59, 0.000, 0.000, 0.000, 20:26:46.980
21, -38128.61, -31815.63, -43093.34, -38199.29, -9147.96, -29108.50, -18925.91, -48236.14, 0.000, 0.000, 0.000, 20:26:46.980
22, -38016.52, -31931.25, -42570.15, -38357.16, -8433.25, -28754.15, -18188.02, -48330.77, 0.000, 0.000, 0.000, 20:26:46.980
23, -37736.14, -31668.80, -42436.33, -38300.70, -8568.41, -28263.85, -17801.62, -48341.05, 0.000, 0.000, 0.000, 20:26:46.980
24, -37670.22, -31398.75, -42874.38, -38122.33, -9364.96, -28301.87, -18291.82, -48246.55, 0.000, 0.000, 0.000, 20:26:46.980
25, -37932.52, -31506.86, -43279.70, -38075.21, -9715.83, -28815.22, -18951.75, -48188.53, 0.000, 0.000, 0.000, 20:26:46.981
26, -38128.32, -31819.05, -43098.39, -38212.34, -9145.15, -29095.55, -18888.18, -48234.08, 0.000, 0.000, 0.000, 20:26:46.981
27, -38013.92, -31928.15, -42577.61, -38361.49, -8425.71, -28748.23, -18161.17, -48332.98, 0.000, 0.000, 0.000, 20:26:46.981
28, -37735.46, -31670.83, -42440.08, -38306.66, -8568.41, -28260.27, -17781.57, -48348.39, 0.218, 0.858, -0.498, 20:26:46.981
29, -37671.76, -31399.19, -42887.25, -38118.26, -9376.58, -28312.26, -18293.09, -48250.75, 0.000, 0.000, 0.000, 20:26:46.981
30, -37930.39, -31508.25, -43289.25, -38066.20, -9722.63, -28825.01, -18970.48, -48183.41, 0.000, 0.000, 0.000, 20:26:46.981
31, -38133.50, -31826.98, -43102.95, -38209.32, -9159.21, -29092.65, -18896.14, -48238.91, 0.000, 0.000, 0.000, 20:26:46.981
32, -38021.37, -31929.29, -42588.23, -38348.11, -8450.99, -28767.70, -18196.96, -48335.00, 0.000, 0.000, 0.000, 20:26:46.981
33, -37732.54, -31664.17, -42438.00, -38290.66, -8567.65, -28273.99, -17822.99, -48335.24, 0.000, 0.000, 0.000, 20:26:46.981
34, -37673.62, -31400.40, -42876.99, -38116.23, -9365.40, -28305.33, -18307.78, -48248.83, 0.000, 0.000, 0.000, 20:26:46.982
35, -37927.94, -31502.46, -43274.70, -38062.70, -9710.69, -28809.65, -18968.56, -48184.35, 0.000, 0.000, 0.000, 20:26:46.982
36, -38139.81, -31826.96, -43105.72, -38212.86, -9162.83, -29089.34, -18905.42, -48242.64, 0.000, 0.000, 0.000, 20:26:46.982
37, -38023.64, -31930.27, -42588.03, -38357.18, -8452.29, -28758.04, -18200.55, -48337.07, 0.000, 0.000, 0.000, 20:26:46.982
38, -37737.30, -31664.96, -42435.01, -38293.14, -8569.68, -28257.54, -17810.41, -48340.16, 0.226, 0.864, -0.500, 20:26:46.982
39, -37676.59, -31392.96, -42879.23, -38108.58, -9371.28, -28306.87, -18319.00, -48243.91, 0.000, 0.000, 0.000, 20:26:46.982
40, -37940.90, -31509.05, -43279.23, -38063.14, -9718.92, -28808.25, -18978.42, -48184.75, 0.000, 0.000, 0.000, 20:26:46.982
41, -38138.33, -31826.13, -43093.85, -38207.27, -9158.76, -29073.83, -18898.20, -48235.44, 0.000, 0.000, 0.000, 20:26:46.982
42, -38017.34, -31928.66, -42562.13, -38347.28, -8433.40, -28713.99, -18145.46, -48326.13, 0.000, 0.000, 0.000, 20:26:46.982
43, -37742.77, -31670.90, -42429.89, -38294.97, -8554.73, -28233.09, -17765.01, -48343.87, 0.000, 0.000, 0.000, 20:26:46.982
44, -37691.05, -31408.36, -42891.43, -38121.57, -9375.10, -28304.66, -18292.85, -48264.77, 0.000, 0.000, 0.000, 20:26:46.983
45, -37938.89, -31510.28, -43292.00, -38071.84, -9725.15, -28823.27, -18978.46, -48190.76, 0.000, 0.000, 0.000, 20:26:46.983
46, -38126.46, -31817.17, -43094.30, -38208.61, -9148.77, -29074.86, -18886.31, -48232.38, 0.000, 0.000, 0.000, 20:26:46.983
47, -38012.76, -31915.14, -42581.84, -38344.46, -8440.49, -28753.60, -18180.66, -48330.97, 0.000, 0.000, 0.000, 20:26:46.983
48, -37733.66, -31661.49, -42445.38, -38299.02, -8571.71, -28280.41, -17820.55, -48336.25, 0.226, 0.862, -0.502, 20:26:46.983
49, -37672.55, -31396.58, -42883.21, -38125.75, -9372.00, -28315.84, -18315.73, -48250.98, 0.000, 0.000, 0.000, 20:26:46.983
50, -37925.68, -31497.03, -43282.39, -38071.03, -9721.11, -28825.52, -18986.78, -48190.00, 0.000, 0.000, 0.000, 20:26:46.983
51, -38121.95, -31813.82, -43088.17, -38212.63, -9149.04, -29079.22, -18889.15, -48237.61, 0.000, 0.000, 0.000, 20:26:46.983
52, -38008.34, -31918.45, -42576.18, -38356.75, -8444.58, -28747.18, -18171.99, -48334.39, 0.000, 0.000, 0.000, 20:26:46.983
53, -37729.79, -31659.61, -42436.33, -38307.89, -8572.30, -28262.13, -17794.16, -48350.87, 0.000, 0.000, 0.000, 20:26:46.984
54, -37665.62, -31387.03, -42871.27, -38124.03, -9367.77, -28301.62, -18288.11, -48251.34, 0.000, 0.000, 0.000, 20:26:46.984
55, -37924.83, -31487.21, -43279.70, -38069.85, -9724.39, -28823.02, -18974.48, -48188.84, 0.000, 0.000, 0.000, 20:26:46.984
56, -38120.95, -31798.60, -43097.94, -38210.51, -9161.17, -29103.96, -18918.45, -48233.99, 0.000, 0.000, 0.000, 20:26:46.984
57, -38005.79, -31903.40, -42573.57, -38355.39, -8447.89, -28766.49, -18196.69, -48329.07, 0.000, 0.000, 0.000, 20:26:46.984
58, -37719.95, -31640.17, -42426.94, -38300.52, -8571.22, -28278.33, -17819.88, -48341.32, 0.222, 0.868, -0.504, 20:26:46.984
59, -37648.25, -31368.46, -42862.22, -38118.17, -9368.11, -28310.65, -18311.55, -48250.57, 0.000, 0.000, 0.000, 20:26:46.984
60, -37901.00, -31468.66, -43266.27, -38059.61, -9719.88, -28820.83, -18989.37, -48182.40, 0.000, 0.000, 0.000, 20:26:46.984
61, -38102.88, -31783.89, -43086.38, -38196.87, -9157.73, -29090.35, -18920.21, -48226.97, 0.000, 0.000, 0.000, 20:26:46.984
62, -37991.50, -31888.16, -42566.37, -38340.97, -8444.47, -28754.60, -18201.31, -48325.72, 0.000, 0.000, 0.000, 20:26:46.985
63, -37705.96, -31627.22, -42413.71, -38287.96, -8557.39, -28256.20, -17809.04, -48332.54, 0.000, 0.000, 0.000, 20:26:46.985
64, -37652.43, -31369.58, -42860.59, -38118.71, -9364.06, -28302.27, -18306.08, -48247.85, 0.000, 0.000, 0.000, 20:26:46.985
65, -37912.69, -31476.75, -43268.59, -38070.54, -9724.26, -28814.77, -18978.62, -48188.86, 0.000, 0.000, 0.000, 20:26:46.985
66, -38113.50, -31793.84, -43092.35, -38210.39, -9167.72, -29094.30, -18918.11, -48239.13, 0.000, 0.000, 0.000, 20:26:46.985
67, -37996.27, -31900.10, -42564.80, -38356.13, -8446.61, -28746.80, -18187.10, -48332.20, 0.000, 0.000, 0.000, 20:26:46.985
68, -37712.33, -31639.18, -42420.23, -38301.12, -8566.73, -28257.97, -17803.63, -48337.39, 0.218, 0.876, -0.504, 20:26:46.985
69, -37653.12, -31373.58, -42864.88, -38129.93, -9365.54, -28305.94, -18310.32, -48252.05, 0.000, 0.000, 0.000, 20:26:46.985
70, -37910.10, -31482.36, -43270.29, -38087.53, -9716.46, -28811.67, -18975.98, -48191.70, 0.000, 0.000, 0.000, 20:26:46.985
71, -38119.65, -31805.57, -43104.27, -38237.69, -9173.85, -29087.80, -18905.17, -48237.32, 0.000, 0.000, 0.000, 20:26:46.986
72, -38005.07, -31907.61, -42588.81, -38377.03, -8463.00, -28762.76, -18194.25, -48326.01, 0.000, 0.000, 0.000, 20:26:46.986
73, -37720.78, -31652.82, -42432.46, -38324.19, -8566.71, -28265.84, -17796.32, -48338.98, 0.000, 0.000, 0.000, 20:26:46.986
74, -37651.31, -31374.29, -42867.96, -38132.16, -9359.75, -28310.63, -18298.17, -48246.37, 0.000, 0.000, 0.000, 20:26:46.986
75, -37908.36, -31476.08, -43274.41, -38076.24, -9721.20, -28828.65, -18989.84, -48180.46, 0.000, 0.000, 0.000, 20:26:46.986
76, -38112.83, -31800.74, -43092.78, -38226.69, -9168.82, -29096.27, -18918.29, -48224.60, 0.000, 0.000, 0.000, 20:26:46.986
77, -38003.71, -31909.77, -42579.00, -38370.75, -8458.26, -28775.99, -18211.84, -48316.89, 0.000, 0.000, 0.000, 20:26:46.986
78, -37719.80, -31651.90, -42421.46, -38319.41, -8560.72, -28277.41, -17813.27, -48326.66, 0.216, 0.868, -0.504, 20:26:46.986
79, -37654.02, -31383.77, -42856.32, -38140.19, -9358.76, -28318.03, -18302.68, -48243.51, 0.000, 0.000, 0.000, 20:26:46.986
80, -37914.57, -31490.90, -43263.16, -38091.15, -9721.06, -28825.99, -18970.42, -48180.99, 0.000, 0.000, 0.000, 20:26:46.987
81, -38118.13, -31803.98, -43093.80, -38225.59, -9171.46, -29099.89, -18904.26, -48226.28, 0.000, 0.000, 0.000, 20:26:46.987
82, -38000.69, -31906.58, -42574.64, -38362.92, -8450.70, -28768.75, -18190.74, -48312.00, 0.000, 0.000, 0.000, 20:26:46.987
83, -37713.63, -31642.83, -42421.08, -38303.58, -8555.49, -28278.55, -17807.75, -48316.45, 0.000, 0.000, 0.000, 20:26:46.987
84, -37658.80, -31385.69, -42858.08, -38139.96, -9356.57, -28310.81, -18297.94, -48231.80, 0.000, 0.000, 0.000, 20:26:46.987
85, -37927.76, -31497.16, -43276.86, -38093.92, -9729.00, -28827.13, -18979.47, -48174.42, 0.000, 0.000, 0.000, 20:26:46.987
86, -38136.86, -31819.85, -43120.02, -38238.78, -9184.78, -29127.50, -18943.84, -48228.00, 0.000, 0.000, 0.000, 20:26:46.987
87, -38017.66, -31923.97, -42588.36, -38377.65, -8453.32, -28779.86, -18213.72, -48318.03, 0.000, 0.000, 0.000, 20:26:46.987
88, -37729.03, -31659.12, -42432.75, -38317.84, -8558.66, -28294.31, -17832.45, -48324.13, 0.218, 0.870, -0.500, 20:26:46.987
89, -37656.86, -31387.12, -42856.88, -38141.89, -9340.86, -28323.77, -18320.65, -48231.96, 0.000, 0.000, 0.000, 20:26:47.454
90, -37920.96, -31498.26, -43265.46, -38095.11, -9707.61, -28824.14, -18983.18, -48176.08, 0.000, 0.000, 0.000, 20:26:47.455
91, -38126.38, -31811.96, -43100.93, -38230.22, -9165.38, -29103.24, -18924.37, -48221.00, 0.000, 0.000, 0.000, 20:26:47.455
92, -38015.33, -31919.65, -42584.25, -38370.84, -8444.96, -28769.58, -18207.57, -48312.94, 0.000, 0.000, 0.000, 20:26:47.455
93, -37731.02, -31661.71, -42430.63, -38321.10, -8554.73, -28275.13, -17815.01, -48328.63, 0.000, 0.000, 0.000, 20:26:47.455
94, -37658.71, -31387.79, -42857.95, -38142.58, -9349.78, -28302.61, -18291.37, -48244.16, 0.000, 0.000, 0.000, 20:26:47.455
95, -37910.55, -31487.84, -43268.48, -38088.09, -9714.38, -28812.74, -18964.49, -48175.88, 0.000, 0.000, 0.000, 20:26:47.455
96, -38111.71, -31801.50, -43102.90, -38227.58, -9170.32, -29094.08, -18905.13, -48220.47, 0.000, 0.000, 0.000, 20:26:47.455
97, -37996.85, -31902.08, -42589.17, -38365.94, -8450.90, -28770.18, -18197.87, -48314.10, 0.000, 0.000, 0.000, 20:26:47.456
98, -37710.90, -31649.64, -42427.25, -38322.15, -8547.80, -28266.48, -17793.15, -48330.91, 0.226, 0.876, -0.498, 20:26:47.456
99, -37643.24, -31375.39, -42863.02, -38136.86, -9349.76, -28309.65, -18289.67, -48242.86, 0.000, 0.000, 0.000, 20:26:47.456
100, -37903.13, -31481.56, -43278.43, -38088.40, -9723.90, -28833.48, -18984.90, -48181.31, 0.000, 0.000, 0.000, 20:26:47.456
101, -38109.88, -31803.87, -43103.44, -38234.16, -9169.76, -29098.55, -18908.93, -48222.05, 0.000, 0.000, 0.000, 20:26:47.456
102, -38003.93, -31913.37, -42587.63, -38379.00, -8450.79, -28763.72, -18180.60, -48317.77, 0.000, 0.000, 0.000, 20:26:47.456
103, -37719.15, -31654.65, -42432.66, -38324.10, -8552.34, -28272.92, -17787.27, -48321.59, 0.000, 0.000, 0.000, 20:26:47.456
104, -37650.26, -31386.14, -42862.91, -38148.44, -9343.77, -28315.59, -18279.97, -48230.23, 0.000, 0.000, 0.000, 20:26:47.456
105, -37909.38, -31493.63, -43266.65, -38100.56, -9705.62, -28813.41, -18940.20, -48177.51, 0.000, 0.000, 0.000, 20:26:47.457
106, -38119.65, -31809.48, -43104.04, -38234.67, -9167.39, -29095.62, -18883.51, -48227.62, 0.000, 0.000, 0.000, 20:26:47.457
107, -38011.53, -31915.25, -42593.19, -38369.94, -8456.89, -28776.48, -18181.24, -48316.00, 0.228, 0.874, -0.502, 20:26:47.457
108, -37716.71, -31648.37, -42431.45, -38307.11, -8556.76, -28287.32, -17798.40, -48319.26, 0.000, 0.000, 0.000, 20:26:47.457
109, -37652.85, -31385.87, -42862.46, -38138.33, -9359.26, -28321.74, -18296.11, -48240.94, 0.000, 0.000, 0.000, 20:26:47.457
110, -37913.23, -31489.16, -43277.69, -38086.68, -9734.61, -28838.58, -18991.20, -48185.98, 0.000, 0.000, 0.000, 20:26:47.457
111, -38117.48, -31805.95, -43107.04, -38225.10, -9180.24, -29113.19, -18936.02, -48230.68, 0.000, 0.000, 0.000, 20:26:47.457
112, -38008.85, -31915.76, -42593.41, -38368.46, -8460.20, -28781.96, -18218.95, -48323.00, 0.000, 0.000, 0.000, 20:26:47.457
113, -37717.16, -31654.72, -42428.91, -38314.89, -8553.41, -28281.08, -17815.41, -48328.20, 0.000, 0.000, 0.000, 20:26:47.458
114, -37646.95, -31383.05, -42849.45, -38139.59, -9337.91, -28305.40, -18289.69, -48238.01, 0.000, 0.000, 0.000, 20:26:47.458
115, -37904.45, -31487.28, -43255.12, -38089.88, -9708.44, -28804.76, -18950.77, -48179.96, 0.000, 0.000, 0.000, 20:26:47.458
116, -38110.53, -31797.75, -43092.57, -38219.78, -9169.89, -29092.63, -18896.54, -48229.07, 0.000, 0.000, 0.000, 20:26:47.458
117, -38006.17, -31912.52, -42579.18, -38369.03, -8448.65, -28761.44, -18171.81, -48319.89, 0.216, 0.862, -0.506, 20:26:47.458
118, -37725.95, -31656.35, -42424.75, -38314.78, -8549.34, -28270.53, -17773.30, -48329.30, 0.000, 0.000, 0.000, 20:26:47.458
119, -37655.25, -31382.90, -42856.07, -38137.13, -9341.02, -28311.34, -18274.56, -48242.13, 0.000, 0.000, 0.000, 20:26:47.458
120, -37906.68, -31482.34, -43262.20, -38086.21, -9712.48, -28814.77, -18948.65, -48185.22, 0.000, 0.000, 0.000, 20:26:47.458
121, -38114.86, -31796.72, -43102.59, -38221.59, -9168.62, -29099.00, -18905.24, -48229.27, 0.000, 0.000, 0.000, 20:26:47.458
122, -38009.86, -31907.83, -42588.61, -38364.18, -8438.70, -28770.25, -18191.35, -48324.61, 0.000, 0.000, 0.000, 20:26:47.459
123, -37719.93, -31651.10, -42428.95, -38310.60, -8544.20, -28283.47, -17804.51, -48332.79, 0.000, 0.000, 0.000, 20:26:47.459
124, -37641.10, -31375.19, -42840.89, -38123.85, -9336.23, -28302.54, -18282.88, -48235.82, 0.000, 0.000, 0.000, 20:26:47.459
125, -37895.64, -31474.56, -43242.73, -38070.07, -9708.88, -28798.01, -18947.39, -48179.72, 0.000, 0.000, 0.000, 20:26:47.459
126, -38113.07, -31797.48, -43092.51, -38213.48, -9180.78, -29093.12, -18904.48, -48231.84, 0.000, 0.000, 0.000, 20:26:47.459
127, -38004.43, -31909.19, -42575.29, -38358.41, -8454.82, -28764.37, -18185.07, -48320.54, 0.216, 0.862, -0.494, 20:26:47.459
128, -37717.38, -31653.02, -42410.96, -38305.57, -8545.34, -28264.41, -17776.01, -48334.73, 0.000, 0.000, 0.000, 20:26:47.459
129, -37647.51, -31385.18, -42840.92, -38134.46, -9340.10, -28292.86, -18252.34, -48254.29, 0.000, 0.000, 0.000, 20:26:47.459
130, -37896.31, -31475.44, -43255.81, -38071.32, -9715.14, -28804.07, -18938.68, -48178.16, 0.000, 0.000, 0.000, 20:26:47.460
131, -38105.72, -31791.20, -43096.57, -38208.41, -9169.49, -29093.10, -18895.54, -48215.68, 0.000, 0.000, 0.000, 20:26:47.460
132, -38008.83, -31911.52, -42594.24, -38359.53, -8458.26, -28783.64, -18201.07, -48321.41, 0.000, 0.000, 0.000, 20:26:47.460
133, -37725.54, -31660.84, -42435.93, -38315.49, -8555.06, -28290.20, -17810.63, -48338.68, 0.000, 0.000, 0.000, 20:26:47.460
134, -37654.13, -31393.29, -42857.48, -38146.25, -9346.29, -28302.13, -18276.48, -48252.16, 0.000, 0.000, 0.000, 20:26:47.460
135, -37906.01, -31487.24, -43263.25, -38088.51, -9719.01, -28796.69, -18940.73, -48184.70, 0.000, 0.000, 0.000, 20:26:47.460
136, -38112.58, -31797.05, -43102.92, -38216.65, -9175.77, -29088.25, -18898.11, -48225.99, 0.000, 0.000, 0.000, 20:26:47.460
137, -38004.65, -31904.92, -42593.68, -38352.89, -8447.48, -28780.04, -18204.56, -48311.86, 0.208, 0.864, -0.496, 20:26:47.460
138, -37720.76, -31658.00, -42428.46, -38316.01, -8542.14, -28284.25, -17802.76, -48332.72, 0.000, 0.000, 0.000, 20:26:47.460
139, -37651.67, -31392.35, -42849.01, -38147.74, -9337.53, -28298.36, -18261.20, -48254.57, 0.000, 0.000, 0.000, 20:26:47.461
140, -37906.10, -31480.71, -43266.43, -38080.09, -9722.79, -28811.33, -18949.38, -48183.23, 0.000, 0.000, 0.000, 20:26:47.461
141, -38109.01, -31786.41, -43104.73, -38207.24, -9181.02, -29096.29, -18910.67, -48216.54, 0.000, 0.000, 0.000, 20:26:47.461
142, -38009.14, -31905.21, -42588.48, -38355.08, -8453.79, -28769.69, -18197.25, -48309.11, 0.000, 0.000, 0.000, 20:26:47.461
143, -37726.46, -31659.32, -42423.77, -38314.64, -8544.31, -28272.97, -17792.52, -48329.32, 0.000, 0.000, 0.000, 20:26:47.461
144, -37647.04, -31383.44, -42845.66, -38133.62, -9337.42, -28293.15, -18263.61, -48244.72, 0.000, 0.000, 0.000, 20:26:47.461
145, -37902.21, -31478.88, -43260.55, -38079.41, -9719.83, -28802.99, -18950.05, -48183.14, 0.000, 0.000, 0.000, 20:26:47.461
146, -38115.98, -31791.71, -43106.70, -38213.64, -9185.76, -29098.71, -18914.31, -48225.03, 0.000, 0.000, 0.000, 20:26:47.461
147, -38011.42, -31905.30, -42593.28, -38353.85, -8459.93, -28778.59, -18208.89, -48313.76, 0.212, 0.864, -0.500, 20:26:47.461
148, -37724.80, -31656.44, -42427.97, -38310.80, -8549.85, -28276.23, -17800.04, -48333.90, 0.000, 0.000, 0.000, 20:26:47.462
149, -37647.46, -31380.98, -42849.72, -38132.70, -9342.07, -28296.44, -18273.45, -48249.64, 0.000, 0.000, 0.000, 20:26:47.462
150, -37905.99, -31478.94, -43265.51, -38077.02, -9722.94, -28808.67, -18964.87, -48187.88, 0.000, 0.000, 0.000, 20:26:47.462
151, -38113.90, -31795.02, -43103.93, -38214.15, -9182.66, -29089.10, -18912.39, -48232.65, 0.000, 0.000, 0.000, 20:26:47.462
152, -38008.45, -31908.03, -42592.01, -38357.52, -8458.19, -28766.16, -18195.86, -48327.35, 0.000, 0.000, 0.000, 20:26:47.462
153, -37722.21, -31653.78, -42424.88, -38308.83, -8536.82, -28273.70, -17788.28, -48330.91, 0.000, 0.000, 0.000, 20:26:47.462
154, -37643.87, -31382.68, -42829.61, -38134.62, -9320.03, -28271.42, -18230.39, -48242.48, 0.000, 0.000, 0.000, 20:26:47.462
155, -37895.35, -31475.19, -43247.59, -38075.01, -9711.61, -28781.83, -18911.68, -48175.90, 0.000, 0.000, 0.000, 20:26:47.462
156, -38114.35, -31799.18, -43104.69, -38221.08, -9189.09, -29088.20, -18882.57, -48227.39, 0.000, 0.000, 0.000, 20:26:47.462
157, -38016.38, -31915.03, -42593.41, -38367.80, -8464.18, -28772.91, -18169.15, -48318.75, 0.214, 0.866, -0.500, 20:26:47.462
158, -37728.94, -31661.16, -42427.90, -38320.70, -8550.23, -28283.88, -17771.25, -48332.65, 0.000, 0.000, 0.000, 20:26:47.463
159, -37650.06, -31387.79, -42844.20, -38145.89, -9335.23, -28295.77, -18236.54, -48243.22, 0.000, 0.000, 0.000, 20:26:47.463
160, -37905.11, -31482.23, -43261.06, -38086.52, -9720.01, -28801.43, -18922.43, -48178.78, 0.000, 0.000, 0.000, 20:26:47.463
161, -38116.25, -31797.79, -43106.57, -38219.67, -9186.34, -29092.89, -18883.04, -48221.88, 0.000, 0.000, 0.000, 20:26:47.463
162, -38008.40, -31907.27, -42591.43, -38358.48, -8450.77, -28776.17, -18179.03, -48306.54, 0.000, 0.000, 0.000, 20:26:47.463
163, -37718.48, -31655.93, -42418.11, -38312.72, -8531.30, -28272.41, -17765.32, -48317.79, 0.000, 0.000, 0.000, 20:26:47.463
164, -37639.29, -31379.93, -42843.62, -38132.88, -9330.18, -28306.63, -18255.41, -48229.86, 0.000, 0.000, 0.000, 20:26:47.463
165, -37891.01, -31479.55, -43256.86, -38085.23, -9713.55, -28806.10, -18938.10, -48174.96, 0.000, 0.000, 0.000, 20:26:47.463
166, -38109.77, -31795.04, -43105.63, -38218.44, -9186.34, -29097.14, -18893.50, -48228.54, 0.000, 0.000, 0.000, 20:26:47.463
167, -38012.18, -31910.60, -42599.88, -38364.24, -8468.63, -28798.41, -18211.60, -48322.86, 0.210, 0.870, -0.494, 20:26:47.463
168, -37722.28, -31661.22, -42415.72, -38322.67, -8540.42, -28277.17, -17778.93, -48338.68, 0.000, 0.000, 0.000, 20:26:47.463
169, -37639.62, -31375.50, -42834.30, -38134.09, -9330.27, -28296.30, -18247.27, -48246.62, 0.000, 0.000, 0.000, 20:26:47.464
170, -37889.87, -31462.36, -43250.09, -38072.44, -9718.96, -28803.91, -18937.78, -48180.61, 0.000, 0.000, 0.000, 20:26:47.464
171, -38104.92, -31781.03, -43098.81, -38215.02, -9194.14, -29095.51, -18900.17, -48228.11, 0.000, 0.000, 0.000, 20:26:47.464
172, -38006.82, -31899.45, -42594.02, -38359.64, -8476.05, -28787.12, -18201.99, -48316.47, 0.000, 0.000, 0.000, 20:26:47.464
173, -37713.02, -31643.72, -42414.09, -38310.64, -8542.41, -28278.38, -17786.04, -48324.05, 0.000, 0.000, 0.000, 20:26:47.464
174, -37639.62, -31375.41, -42828.18, -38141.17, -9327.52, -28279.61, -18235.45, -48246.77, 0.000, 0.000, 0.000, 20:26:47.464
175, -37898.92, -31472.91, -43259.65, -38090.28, -9730.07, -28801.36, -18933.74, -48191.14, 0.000, 0.000, 0.000, 20:26:47.464
176, -38111.60, -31786.06, -43106.93, -38224.63, -9199.33, -29095.76, -18894.33, -48231.24, 0.000, 0.000, 0.000, 20:26:47.464
177, -38013.27, -31904.68, -42600.73, -38367.04, -8476.47, -28791.91, -18202.61, -48324.18, 0.208, 0.868, -0.494, 20:26:47.464
178, -37725.36, -31661.00, -42421.31, -38328.68, -8548.65, -28278.29, -17770.40, -48347.67, 0.000, 0.000, 0.000, 20:26:47.464
179, -37637.48, -31375.30, -42831.66, -38143.14, -9329.30, -28283.47, -18220.61, -48254.78, 0.000, 0.000, 0.000, 20:26:47.464
180, -37885.04, -31462.76, -43246.58, -38076.96, -9715.70, -28784.82, -18901.46, -48169.17, 0.000, 0.000, 0.000, 20:26:47.465
181, -38117.37, -31795.71, -43118.35, -38227.43, -9210.13, -29100.32, -18894.69, -48229.90, 0.000, 0.000, 0.000, 20:26:47.465
182, -38022.35, -31914.24, -42617.45, -38371.44, -8488.01, -28801.14, -18206.93, -48320.27, 0.000, 0.000, 0.000, 20:26:47.465
183, -37735.04, -31668.53, -42444.78, -38331.45, -8555.60, -28304.33, -17803.52, -48336.20, 0.000, 0.000, 0.000, 20:26:47.465
184, -37652.83, -31388.84, -42852.36, -38148.95, -9325.84, -28298.31, -18248.72, -48246.71, 0.000, 0.000, 0.000, 20:26:47.465
185, -37895.19, -31468.33, -43263.66, -38081.58, -9718.23, -28792.31, -18924.15, -48179.54, 0.000, 0.000, 0.000, 20:26:47.465
186, -38109.03, -31786.39, -43114.90, -38221.75, -9202.01, -29089.41, -18888.63, -48231.75, 0.212, 0.866, -0.500, 20:26:47.465
187, -38014.93, -31907.81, -42602.25, -38369.29, -8476.76, -28778.94, -18178.32, -48326.44, 0.000, 0.000, 0.000, 20:26:47.465
188, -37727.22, -31655.93, -42427.79, -38325.77, -8545.83, -28284.43, -17765.08, -48337.16, 0.000, 0.000, 0.000, 20:26:47.465
189, -37639.71, -31375.41, -42843.98, -38147.03, -9335.34, -28298.13, -18230.95, -48252.99, 0.000, 0.000, 0.000, 20:26:47.465
190, -37880.30, -31457.53, -43253.39, -38081.70, -9723.92, -28792.91, -18914.58, -48185.71, 0.000, 0.000, 0.000, 20:26:47.465
191, -38089.61, -31772.87, -43100.55, -38218.00, -9196.71, -29085.18, -18880.63, -48229.50, 0.000, 0.000, 0.000, 20:26:47.466
192, -38006.68, -31903.69, -42598.63, -38371.20, -8476.83, -28779.79, -18175.97, -48328.07, 0.000, 0.000, 0.000, 20:26:47.466
193, -37718.97, -31650.87, -42433.85, -38321.44, -8553.65, -28303.30, -17794.38, -48337.03, 0.000, 0.000, 0.000, 20:26:47.466
194, -37639.35, -31379.52, -42839.87, -38151.21, -9328.28, -28299.25, -18247.58, -48251.87, 0.000, 0.000, 0.000, 20:26:47.466
195, -37886.70, -31462.00, -43259.77, -38081.80, -9719.70, -28807.20, -18948.45, -48178.67, 0.000, 0.000, 0.000, 20:26:47.466
196, -38099.91, -31779.35, -43110.19, -38217.05, -9189.83, -29103.56, -18923.70, -48221.34, 0.220, 0.862, -0.500, 20:26:47.466
197, -38001.77, -31901.66, -42587.78, -38364.89, -8446.61, -28782.23, -18199.84, -48317.94, 0.000, 0.000, 0.000, 20:26:47.466
198, -37720.00, -31650.70, -42414.36, -38316.05, -8518.56, -28286.29, -17782.29, -48334.15, 0.000, 0.000, 0.000, 20:26:47.466
199, -37636.07, -31368.37, -42829.81, -38134.80, -9307.96, -28295.65, -18251.56, -48242.57, 0.000, 0.000, 0.000, 20:26:47.466
200, -37883.68, -31459.32, -43246.24, -38078.57, -9706.13, -28787.41, -18927.61, -48178.78, 0.000, 0.000, 0.000, 20:26:47.466
201, -38107.27, -31784.02, -43107.55, -38223.98, -9195.53, -29088.87, -18894.69, -48233.59, 0.000, 0.000, 0.000, 20:26:47.466
202, -38015.22, -31905.21, -42606.49, -38368.31, -8479.74, -28793.65, -18203.95, -48329.97, 0.000, 0.000, 0.000, 20:26:47.467
203, -37715.82, -31646.18, -42417.78, -38315.74, -8536.49, -28280.01, -17774.53, -48338.46, 0.000, 0.000, 0.000, 20:26:47.467
204, -37630.64, -31360.75, -42834.32, -38129.55, -9325.24, -28290.09, -18234.24, -48256.45, 0.000, 0.000, 0.000, 20:26:47.467
205, -37875.66, -31447.18, -43254.02, -38066.56, -9722.09, -28791.95, -18926.50, -48183.50, 0.000, 0.000, 0.000, 20:26:47.467
206, -38088.62, -31758.07, -43107.37, -38193.00, -9204.65, -29093.66, -18907.41, -48218.30, 0.220, 0.864, -0.498, 20:26:47.467
207, -37998.61, -31887.49, -42595.94, -38344.93, -8474.53, -28787.50, -18207.22, -48312.38, 0.000, 0.000, 0.000, 20:26:47.467
208, -37724.29, -31652.91, -42425.33, -38315.88, -8552.11, -28296.50, -17793.40, -48339.94, 0.000, 0.000, 0.000, 20:26:47.467
209, -37640.27, -31368.75, -42833.61, -38130.22, -9339.34, -28295.43, -18244.97, -48248.50, 0.000, 0.000, 0.000, 20:26:47.935
210, -37878.20, -31442.80, -43253.06, -38062.00, -9733.89, -28796.06, -18946.37, -48177.86, 0.000, 0.000, 0.000, 20:26:47.935
211, -38094.32, -31763.04, -43109.45, -38209.19, -9212.83, -29090.62, -18914.63, -48231.31, 0.000, 0.000, 0.000, 20:26:47.935
212, -38003.73, -31894.35, -42597.95, -38360.04, -8479.98, -28782.23, -18200.96, -48327.98, 0.000, 0.000, 0.000, 20:26:47.935
213, -37714.45, -31643.81, -42410.89, -38309.46, -8534.43, -28279.07, -17771.51, -48341.21, 0.000, 0.000, 0.000, 20:26:47.936
214, -37632.11, -31365.33, -42822.52, -38132.72, -9317.55, -28282.60, -18224.40, -48256.57, 0.000, 0.000, 0.000, 20:26:47.936
215, -37880.62, -31454.56, -43245.86, -38076.11, -9722.72, -28783.32, -18912.01, -48194.50, 0.000, 0.000, 0.000, 20:26:47.936
216, -38092.73, -31765.27, -43097.45, -38201.45, -9200.80, -29079.64, -18878.42, -48232.36, 0.218, 0.860, -0.494, 20:26:47.936
217, -37995.04, -31889.37, -42589.77, -38345.85, -8467.69, -28786.45, -18188.91, -48314.61, 0.000, 0.000, 0.000, 20:26:47.936
218, -37718.66, -31658.14, -42412.41, -38318.64, -8534.43, -28282.35, -17759.47, -48342.89, 0.000, 0.000, 0.000, 20:26:47.936
219, -37642.59, -31380.26, -42832.78, -38139.85, -9326.89, -28292.41, -18220.02, -48258.18, 0.000, 0.000, 0.000, 20:26:47.936
220, -37895.84, -31469.00, -43263.52, -38076.80, -9735.79, -28809.88, -18930.07, -48191.72, 0.000, 0.000, 0.000, 20:26:47.936
221, -38108.54, -31788.22, -43114.75, -38212.21, -9211.76, -29105.52, -18900.34, -48235.91, 0.000, 0.000, 0.000, 20:26:47.936
222, -38012.05, -31908.57, -42601.84, -38351.93, -8475.51, -28807.80, -18204.58, -48323.15, 0.000, 0.000, 0.000, 20:26:47.936
223, -37726.77, -31666.41, -42416.55, -38316.59, -8534.81, -28300.71, -17777.10, -48343.45, 0.000, 0.000, 0.000, 20:26:47.937
224, -37635.29, -31381.40, -42820.42, -38134.89, -9311.89, -28282.38, -18211.42, -48254.06, 0.000, 0.000, 0.000, 20:26:47.937
225, -37879.72, -31463.95, -43252.10, -38074.00, -9719.37, -28790.48, -18914.18, -48186.43, 0.000, 0.000, 0.000, 20:26:47.937
226, -38098.99, -31781.97, -43115.24, -38214.46, -9209.59, -29095.31, -18896.37, -48236.29, 0.218, 0.866, -0.492, 20:26:47.937
227, -38003.08, -31905.77, -42600.77, -38358.92, -8470.80, -28788.11, -18192.91, -48328.07, 0.000, 0.000, 0.000, 20:26:47.937
228, -37713.40, -31657.15, -42409.73, -38313.59, -8516.68, -28273.86, -17756.02, -48334.68, 0.000, 0.000, 0.000, 20:26:47.937
229, -37638.50, -31386.61, -42827.59, -38152.39, -9308.79, -28268.94, -18199.62, -48258.13, 0.000, 0.000, 0.000, 20:26:47.937
230, -37891.26, -31468.08, -43271.28, -38090.01, -9736.55, -28793.96, -18921.78, -48200.02, 0.000, 0.000, 0.000, 20:26:47.937
231, -38108.80, -31783.46, -43140.43, -38226.51, -9226.82, -29120.48, -18935.44, -48235.73, 0.000, 0.000, 0.000, 20:26:47.937
232, -38010.46, -31907.23, -42617.60, -38375.80, -8474.35, -28808.85, -18226.66, -48322.37, 0.000, 0.000, 0.000, 20:26:47.937
233, -37726.70, -31662.83, -42424.28, -38330.38, -8519.34, -28294.04, -17785.04, -48340.72, 0.000, 0.000, 0.000, 20:26:47.938
234, -37639.82, -31379.75, -42833.94, -38149.71, -9307.02, -28297.33, -18242.44, -48257.13, 0.000, 0.000, 0.000, 20:26:47.938
235, -37888.11, -31470.00, -43262.71, -38090.63, -9720.91, -28795.88, -18940.13, -48193.78, 0.000, 0.000, 0.000, 20:26:47.938
236, -38108.34, -31788.27, -43125.54, -38223.00, -9207.00, -29094.06, -18921.40, -48228.89, 0.222, 0.870, -0.498, 20:26:47.938
237, -38010.59, -31909.37, -42610.74, -38364.27, -8468.63, -28786.90, -18214.59, -48313.43, 0.000, 0.000, 0.000, 20:26:47.938
238, -37719.73, -31658.76, -42421.62, -38317.08, -8519.30, -28281.88, -17784.03, -48325.57, 0.000, 0.000, 0.000, 20:26:47.938
239, -37631.64, -31378.63, -42829.27, -38143.88, -9299.93, -28273.08, -18225.12, -48240.05, 0.000, 0.000, 0.000, 20:26:47.938
240, -37877.64, -31457.84, -43258.67, -38078.12, -9702.51, -28766.56, -18911.10, -48172.66, 0.000, 0.000, 0.000, 20:26:47.938
241, -38103.44, -31778.35, -43132.54, -38217.57, -9209.57, -29085.07, -18911.50, -48226.73, 0.000, 0.000, 0.000, 20:26:47.938
242, -38006.50, -31901.01, -42617.82, -38362.77, -8476.05, -28784.06, -18213.59, -48312.98, 0.000, 0.000, 0.000, 20:26:47.938
243, -37719.59, -31658.96, -42429.67, -38325.68, -8525.67, -28282.35, -17782.78, -48330.44, 0.000, 0.000, 0.000, 20:26:47.938
244, -37629.65, -31372.93, -42835.24, -38146.40, -9302.75, -28279.20, -18229.88, -48240.45, 0.000, 0.000, 0.000, 20:26:47.939
245, -37872.23, -31452.84, -43260.97, -38079.79, -9710.76, -28780.91, -18931.90, -48165.84, 0.000, 0.000, 0.000, 20:26:47.939
246, -38096.96, -31777.74, -43127.42, -38225.08, -9205.83, -29083.80, -18918.65, -48220.24, 0.216, 0.868, -0.492, 20:26:47.939
247, -38010.01, -31904.99, -42616.95, -38372.78, -8472.14, -28782.74, -18215.71, -48317.59, 0.000, 0.000, 0.000, 20:26:47.939
248, -37719.08, -31658.67, -42429.36, -38330.51, -8523.14, -28285.17, -17790.29, -48336.41, 0.000, 0.000, 0.000, 20:26:47.939
249, -37629.21, -31375.25, -42829.00, -38153.78, -9293.50, -28272.77, -18225.14, -48250.66, 0.000, 0.000, 0.000, 20:26:47.939
250, -37875.23, -31455.97, -43254.13, -38090.48, -9707.27, -28766.78, -18909.40, -48186.14, 0.000, 0.000, 0.000, 20:26:47.939
251, -38098.12, -31771.97, -43122.06, -38221.86, -9207.40, -29082.90, -18904.93, -48230.44, 0.000, 0.000, 0.000, 20:26:47.939
252, -38007.24, -31894.69, -42611.25, -38364.15, -8477.28, -28795.60, -18220.31, -48324.20, 0.000, 0.000, 0.000, 20:26:47.940
253, -37719.98, -31651.59, -42417.46, -38325.26, -8523.64, -28292.70, -17788.54, -48347.69, 0.000, 0.000, 0.000, 20:26:47.940
254, -37627.17, -31365.20, -42818.50, -38141.48, -9300.14, -28285.82, -18234.04, -48252.92, 0.000, 0.000, 0.000, 20:26:47.940
255, -37872.10, -31453.13, -43235.96, -38083.93, -9705.84, -28760.35, -18896.21, -48186.14, 0.224, 0.870, -0.494, 20:26:47.940
0, -38100.04, -31772.58, -43116.71, -38218.26, -9215.09, -29086.14, -18900.43, -48231.96, 0.000, 0.000, 0.000, 20:26:47.940
1, -38012.74, -31903.34, -42613.18, -38363.86, -8483.92, -28804.56, -18220.96, -48324.22, 0.000, 0.000, 0.000, 20:26:47.940
2, -37720.11, -31660.51, -42415.03, -38324.77, -8520.64, -28296.03, -17785.13, -48338.42, 0.000, 0.000, 0.000, 20:26:47.940
3, -37632.00, -31375.59, -42811.55, -38144.46, -9285.27, -28272.74, -18209.16, -48254.71, 0.000, 0.000, 0.000, 20:26:47.941
4, -37875.75, -31452.52, -43243.45, -38077.40, -9703.41, -28775.14, -18909.44, -48184.35, 0.000, 0.000, 0.000, 20:26:47.941
5, -38098.59, -31766.32, -43121.48, -38206.59, -9211.62, -29103.58, -18927.28, -48225.43, 0.000, 0.000, 0.000, 20:26:47.941
6, -38003.04, -31894.62, -42599.90, -38356.75, -8462.86, -28800.54, -18229.88, -48310.28, 0.000, 0.000, 0.000, 20:26:47.941
7, -37715.35, -31653.67, -42402.58, -38320.25, -8510.52, -28285.62, -17777.04, -48336.70, 0.000, 0.000, 0.000, 20:26:47.941
8, -37618.70, -31355.27, -42812.39, -38128.03, -9295.62, -28290.47, -18237.44, -48244.16, 0.000, 0.000, 0.000, 20:26:47.941
9, -37859.11, -31432.63, -43234.24, -38065.85, -9702.62, -28772.93, -18923.84, -48174.11, 0.222, 0.862, -0.492, 20:26:47.942
10, -38088.45, -31758.77, -43112.47, -38209.43, -9211.31, -29090.66, -18921.60, -48225.25, 0.000, 0.000, 0.000, 20:26:47.942
11, -38009.16, -31901.12, -42605.87, -38371.77, -8478.06, -28796.85, -18223.60, -48324.96, 0.000, 0.000, 0.000, 20:26:47.942
12, -37724.13, -31662.47, -42413.86, -38337.02, -8522.56, -28283.52, -17773.95, -48346.51, 0.000, 0.000, 0.000, 20:26:47.942
13, -37635.06, -31377.02, -42827.19, -38154.45, -9303.11, -28285.66, -18225.43, -48258.91, 0.000, 0.000, 0.000, 20:26:47.942
14, -37873.11, -31449.04, -43251.85, -38082.92, -9710.22, -28780.64, -18924.06, -48180.91, 0.000, 0.000, 0.000, 20:26:47.942
15, -38092.87, -31763.82, -43125.81, -38213.97, -9216.00, -29100.23, -18933.29, -48221.23, 0.000, 0.000, 0.000, 20:26:47.942
16, -38000.85, -31893.39, -42613.20, -38362.19, -8477.17, -28801.59, -18243.07, -48316.78, 0.000, 0.000, 0.000, 20:26:47.942
17, -37716.64, -31652.15, -42418.45, -38325.04, -8518.72, -28292.21, -17809.27, -48336.41, 0.000, 0.000, 0.000, 20:26:47.943
18, -37624.89, -31367.95, -42814.96, -38149.20, -9291.44, -28267.85, -18234.80, -48240.14, 0.000, 0.000, 0.000, 20:26:47.943
19, -37867.68, -31442.00, -43239.49, -38078.72, -9705.10, -28753.80, -18916.62, -48165.57, 0.214, 0.868, -0.494, 20:26:47.943
20, -38098.03, -31764.55, -43124.94, -38214.26, -9219.16, -29086.48, -18934.52, -48216.29, 0.000, 0.000, 0.000, 20:26:47.943
21, -38020.41, -31907.38, -42618.00, -38372.67, -8482.00, -28794.68, -18244.54, -48313.63, 0.000, 0.000, 0.000, 20:26:47.943
22, -37730.79, -31665.40, -42418.67, -38336.17, -8519.99, -28284.34, -17801.96, -48334.93, 0.000, 0.000, 0.000, 20:26:47.943
23, -37636.09, -31377.06, -42814.92, -38156.55, -9298.35, -28271.54, -18236.34, -48250.17, 0.000, 0.000, 0.000, 20:26:47.943
24, -37874.85, -31449.28, -43241.26, -38085.67, -9718.00, -28760.79, -18926.36, -48181.22, 0.000, 0.000, 0.000, 20:26:47.943
25, -38098.75, -31765.47, -43117.50, -38217.95, -9219.04, -29078.90, -18930.41, -48220.80, 0.000, 0.000, 0.000, 20:26:47.943
26, -38010.86, -31895.85, -42609.44, -38364.85, -8479.58, -28789.78, -18240.72, -48312.31, 0.000, 0.000, 0.000, 20:26:47.943
27, -37721.72, -31654.85, -42408.68, -38326.98, -8513.89, -28275.16, -17787.99, -48328.74, 0.000, 0.000, 0.000, 20:26:47.943
28, -37638.23, -31376.46, -42815.26, -38153.22, -9295.84, -28264.85, -18223.18, -48244.92, 0.000, 0.000, 0.000, 20:26:47.944
29, -37887.08, -31459.34, -43250.58, -38095.60, -9717.76, -28761.71, -18919.72, -48183.83, 0.216, 0.878, -0.498, 20:26:47.944
30, -38110.91, -31776.51, -43131.33, -38225.97, -9222.75, -29086.70, -18931.01, -48222.97, 0.000, 0.000, 0.000, 20:26:47.944
31, -38018.84, -31906.20, -42620.73, -38373.00, -8481.24, -28799.93, -18241.06, -48317.96, 0.000, 0.000, 0.000, 20:26:47.944
32, -37725.41, -31663.53, -42415.32, -38331.83, -8507.70, -28284.81, -17786.22, -48331.22, 0.000, 0.000, 0.000, 20:26:47.944
33, -37636.38, -31383.08, -42814.41, -38156.93, -9282.14, -28259.29, -18205.21, -48232.09, 0.000, 0.000, 0.000, 20:26:47.944
34, -37877.00, -31454.80, -43247.23, -38087.30, -9708.99, -28755.38, -18899.72, -48163.92, 0.000, 0.000, 0.000, 20:26:47.944
35, -38097.34, -31765.72, -43129.46, -38214.17, -9220.52, -29090.86, -18926.36, -48203.57, 0.000, 0.000, 0.000, 20:26:47.944
36, -38006.82, -31897.73, -42619.32, -38370.07, -8474.62, -28802.08, -18244.99, -48299.28, 0.000, 0.000, 0.000, 20:26:47.944
37, -37709.96, -31648.35, -42408.66, -38327.07, -8492.90, -28280.48, -17784.54, -48316.36, 0.000, 0.000, 0.000, 20:26:47.944
38, -37614.07, -31359.36, -42804.59, -38145.98, -9257.13, -28263.47, -18211.80, -48225.79, 0.000, 0.000, 0.000, 20:26:47.944
39, -37862.22, -31439.34, -43243.32, -38085.70, -9693.75, -28761.15, -18910.85, -48165.23, 0.216, 0.878, -0.498, 20:26:47.945
40, -38085.67, -31752.44, -43124.70, -38213.75, -9213.37, -29089.25, -18925.24, -48202.79, 0.000, 0.000, 0.000, 20:26:47.945
41, -38009.90, -31898.62, -42623.41, -38380.76, -8485.24, -28808.45, -18240.74, -48314.23, 0.000, 0.000, 0.000, 20:26:47.945
42, -37721.29, -31659.26, -42419.27, -38343.46, -8518.61, -28296.79, -17788.37, -48335.31, 0.000, 0.000, 0.000, 20:26:47.945
43, -37626.39, -31371.81, -42821.67, -38167.12, -9296.02, -28287.52, -18229.50, -48246.20, 0.000, 0.000, 0.000, 20:26:47.945
44, -37863.00, -31439.43, -43258.20, -38092.96, -9725.42, -28790.70, -18944.22, -48171.38, 0.000, 0.000, 0.000, 20:26:47.945
45, -38079.86, -31746.90, -43133.64, -38219.58, -9228.95, -29112.90, -18960.54, -48207.08, 0.000, 0.000, 0.000, 20:26:47.945
46, -37994.03, -31884.83, -42619.88, -38381.03, -8480.14, -28815.80, -18257.96, -48304.04, 0.000, 0.000, 0.000, 20:26:47.945
47, -37708.11, -31645.69, -42420.14, -38345.45, -8510.29, -28310.09, -17807.28, -48329.77, 0.000, 0.000, 0.000, 20:26:47.945
48, -37609.71, -31354.09, -42817.27, -38163.34, -9285.63, -28299.92, -18249.66, -48236.16, 0.000, 0.000, 0.000, 20:26:47.945
49, -37851.31, -31431.16, -43246.98, -38100.36, -9708.14, -28784.78, -18940.94, -48171.25, 0.214, 0.868, -0.494, 20:26:47.945
50, -38080.80, -31752.78, -43122.23, -38237.93, -9208.40, -29092.31, -18930.05, -48214.88, 0.000, 0.000, 0.000, 20:26:47.946
51, -38000.00, -31888.83, -42613.11, -38387.64, -8464.65, -28802.70, -18225.90, -48302.92, 0.000, 0.000, 0.000, 20:26:47.946
52, -37722.17, -31658.99, -42422.83, -38359.17, -8506.78, -28309.76, -17788.28, -48328.89, 0.000, 0.000, 0.000, 20:26:47.946
53, -37628.94, -31374.29, -42826.39, -38180.20, -9290.55, -28302.27, -18234.37, -48248.12, 0.000, 0.000, 0.000, 20:26:47.949
54, -37863.94, -31442.24, -43259.65, -38105.72, -9719.57, -28797.74, -18943.75, -48170.73, 0.000, 0.000, 0.000, 20:26:47.949
55, -38085.49, -31756.53, -43135.89, -38234.36, -9223.31, -29115.65, -18951.82, -48209.74, 0.000, 0.000, 0.000, 20:26:47.949
56, -38001.70, -31895.25, -42623.90, -38385.75, -8476.74, -28823.47, -18249.95, -48304.40, 0.000, 0.000, 0.000, 20:26:47.950
57, -37716.54, -31658.36, -42414.36, -38350.05, -8492.97, -28312.42, -17790.40, -48325.30, 0.000, 0.000, 0.000, 20:26:47.950
58, -37628.02, -31376.86, -42807.93, -38180.89, -9273.13, -28286.78, -18205.07, -48258.33, 0.000, 0.000, 0.000, 20:26:47.950
59, -37864.86, -31441.86, -43242.27, -38104.49, -9712.68, -28779.41, -18904.12, -48185.60, 0.216, 0.862, -0.486, 20:26:47.950
60, -38088.24, -31752.26, -43125.28, -38224.25, -9222.69, -29109.03, -18926.88, -48204.29, 0.000, 0.000, 0.000, 20:26:47.950
61, -38005.18, -31890.15, -42613.75, -38379.78, -8476.54, -28817.90, -18230.17, -48300.75, 0.000, 0.000, 0.000, 20:26:47.950
62, -37712.69, -31646.20, -42402.62, -38337.35, -8498.49, -28301.20, -17768.34, -48313.50, 0.000, 0.000, 0.000, 20:26:47.950
63, -37619.15, -31363.45, -42796.70, -38165.65, -9274.43, -28272.41, -18181.06, -48236.09, 0.000, 0.000, 0.000, 20:26:47.950
64, -37864.73, -31440.79, -43246.15, -38102.93, -9721.53, -28778.99, -18893.24, -48178.65, 0.000, 0.000, 0.000, 20:26:47.950
65, -38083.50, -31750.79, -43129.75, -38229.77, -9225.73, -29105.46, -18911.72, -48211.17, 0.000, 0.000, 0.000, 20:26:47.950
66, -38001.16, -31890.13, -42616.48, -38379.82, -8476.21, -28813.88, -18214.14, -48295.05, 0.000, 0.000, 0.000, 20:26:47.950
67, -37709.43, -31649.89, -42409.75, -38340.30, -8502.56, -28306.99, -17761.75, -48321.14, 0.000, 0.000, 0.000, 20:26:47.951
68, -37605.22, -31352.03, -42798.61, -38154.32, -9276.49, -28285.48, -18192.15, -48230.46, 0.000, 0.000, 0.000, 20:26:47.951
69, -37835.63, -31412.25, -43230.71, -38073.47, -9706.51, -28777.67, -18898.53, -48153.73, 0.218, 0.862, -0.490, 20:26:47.951
70, -38066.61, -31736.93, -43119.44, -38212.23, -9219.74, -29108.70, -18923.77, -48203.12, 0.000, 0.000, 0.000, 20:26:47.951
71, -37990.23, -31883.69, -42612.64, -38373.63, -8480.45, -28824.90, -18237.14, -48303.08, 0.000, 0.000, 0.000, 20:26:47.951
72, -37700.21, -31650.27, -42398.60, -38344.24, -8496.14, -28297.13, -17763.36, -48327.13, 0.000, 0.000, 0.000, 20:26:47.951
73, -37600.30, -31356.08, -42791.09, -38161.29, -9270.88, -28274.49, -18182.65, -48240.85, 0.000, 0.000, 0.000, 20:26:48.414
74, -37835.85, -31417.97, -43225.05, -38083.21, -9703.23, -28764.44, -18884.65, -48164.01, 0.000, 0.000, 0.000, 20:26:48.414
75, -38067.16, -31736.26, -43109.61, -38212.09, -9212.14, -29092.34, -18906.04, -48203.50, 0.000, 0.000, 0.000, 20:26:48.414
76, -37986.92, -31873.92, -42599.76, -38358.95, -8467.11, -28813.54, -18220.56, -48293.73, 0.000, 0.000, 0.000, 20:26:48.414
77, -37698.43, -31642.16, -42388.54, -38331.12, -8485.57, -28299.81, -17761.41, -48321.54, 0.000, 0.000, 0.000, 20:26:48.414
78, -37618.41, -31370.18, -42796.30, -38168.93, -9278.14, -28283.00, -18189.56, -48252.52, 0.220, 0.870, -0.494, 20:26:48.414
79, -37857.57, -31436.16, -43238.93, -38097.70, -9719.59, -28777.54, -18894.40, -48177.93, 0.000, 0.000, 0.000, 20:26:48.414
80, -38075.84, -31744.10, -43122.97, -38222.55, -9232.05, -29102.26, -18910.71, -48212.58, 0.000, 0.000, 0.000, 20:26:48.414
81, -38000.07, -31893.41, -42616.44, -38385.19, -8488.88, -28816.99, -18219.13, -48313.76, 0.000, 0.000, 0.000, 20:26:48.414
82, -37713.54, -31656.04, -42414.33, -38347.99, -8511.75, -28317.85, -17774.04, -48335.11, 0.000, 0.000, 0.000, 20:26:48.415
83, -37608.29, -31364.68, -42793.73, -38172.35, -9261.53, -28273.64, -18177.04, -48242.68, 0.000, 0.000, 0.000, 20:26:48.415
84, -37855.34, -31445.53, -43235.02, -38118.62, -9703.47, -28753.84, -18857.03, -48188.97, 0.000, 0.000, 0.000, 20:26:48.415
85, -38088.06, -31758.70, -43141.73, -38243.99, -9245.04, -29115.87, -18908.88, -48230.68, 0.000, 0.000, 0.000, 20:26:48.415
86, -37995.21, -31883.11, -42615.23, -38375.04, -8479.94, -28826.62, -18216.58, -48301.56, 0.000, 0.000, 0.000, 20:26:48.415
87, -37705.49, -31646.61, -42394.60, -38343.54, -8489.10, -28301.98, -17744.58, -48325.63, 0.000, 0.000, 0.000, 20:26:48.415
88, -37606.74, -31353.39, -42790.16, -38162.32, -9266.61, -28280.21, -18172.91, -48239.96, 0.214, 0.866, -0.490, 20:26:48.415
89, -37843.76, -31415.09, -43234.60, -38084.40, -9714.34, -28787.19, -18904.81, -48160.92, 0.000, 0.000, 0.000, 20:26:48.415
90, -38067.37, -31735.05, -43114.43, -38222.38, -9221.95, -29105.44, -18919.68, -48208.62, 0.000, 0.000, 0.000, 20:26:48.415
91, -37992.18, -31879.06, -42601.62, -38373.65, -8468.25, -28815.78, -18215.53, -48303.13, 0.000, 0.000, 0.000, 20:26:48.415
92, -37701.40, -31640.39, -42388.20, -38334.69, -8478.06, -28302.89, -17753.30, -48319.62, 0.000, 0.000, 0.000, 20:26:48.416
93, -37602.38, -31349.26, -42784.64, -38153.71, -9254.54, -28278.17, -18180.10, -48238.68, 0.000, 0.000, 0.000, 20:26:48.416
94, -37849.46, -31420.72, -43237.53, -38089.29, -9708.39, -28784.22, -18908.59, -48178.76, 0.000, 0.000, 0.000, 20:26:48.416
95, -38071.75, -31733.87, -43122.26, -38213.79, -9227.49, -29113.28, -18937.52, -48209.02, 0.000, 0.000, 0.000, 20:26:48.416
96, -37982.88, -31867.30, -42602.67, -38357.76, -8472.88, -28820.21, -18243.96, -48293.11, 0.000, 0.000, 0.000, 20:26:48.416
97, -37693.85, -31632.66, -42389.12, -38327.65, -8481.12, -28298.29, -17779.18, -48314.86, 0.000, 0.000, 0.000, 20:26:48.416
98, -37597.20, -31349.53, -42781.59, -38159.19, -9254.31, -28262.84, -18186.76, -48236.72, 0.216, 0.864, -0.494, 20:26:48.416
99, -37829.88, -31410.68, -43219.46, -38081.45, -9702.15, -28757.31, -18894.04, -48162.80, 0.000, 0.000, 0.000, 20:26:48.416
100, -38049.39, -31717.66, -43100.13, -38201.43, -9218.60, -29072.55, -18908.95, -48192.80, 0.000, 0.000, 0.000, 20:26:48.416
101, -37986.27, -31874.35, -42603.30, -38371.93, -8482.80, -28798.61, -18224.85, -48303.37, 0.000, 0.000, 0.000, 20:26:48.416
102, -37706.97, -31647.48, -42400.05, -38344.82, -8498.85, -28294.51, -17765.28, -48332.23, 0.000, 0.000, 0.000, 20:26:48.416
103, -37609.07, -31359.09, -42787.77, -38166.07, -9268.80, -28264.72, -18177.53, -48247.85, 0.000, 0.000, 0.000, 20:26:48.417
104, -37843.56, -31422.77, -43230.24, -38087.21, -9711.43, -28767.05, -18903.47, -48175.18, 0.000, 0.000, 0.000, 20:26:48.417
105, -38064.48, -31733.87, -43110.57, -38212.96, -9216.18, -29085.14, -18921.51, -48209.71, 0.000, 0.000, 0.000, 20:26:48.417
106, -37984.46, -31873.97, -42597.26, -38361.05, -8455.71, -28799.22, -18224.58, -48295.88, 0.000, 0.000, 0.000, 20:26:48.417
107, -37699.32, -31641.11, -42387.22, -38330.11, -8475.58, -28294.71, -17767.49, -48317.68, 0.000, 0.000, 0.000, 20:26:48.417
108, -37600.08, -31352.61, -42777.86, -38157.82, -9255.10, -28267.11, -18183.41, -48241.93, 0.222, 0.866, -0.496, 20:26:48.417
109, -37836.63, -31416.43, -43219.76, -38083.71, -9707.59, -28755.27, -18887.65, -48166.82, 0.000, 0.000, 0.000, 20:26:48.417
110, -38063.37, -31729.28, -43112.07, -38211.54, -9234.38, -29088.16, -18920.35, -48202.34, 0.000, 0.000, 0.000, 20:26:48.417
111, -37987.77, -31876.65, -42603.14, -38366.37, -8479.71, -28811.67, -18238.44, -48296.26, 0.000, 0.000, 0.000, 20:26:48.417
112, -37696.48, -31645.62, -42383.27, -38334.96, -8478.82, -28290.56, -17763.71, -48312.82, 0.000, 0.000, 0.000, 20:26:48.417
113, -37601.89, -31363.34, -42776.03, -38167.26, -9254.61, -28250.77, -18163.79, -48240.54, 0.000, 0.000, 0.000, 20:26:48.417
114, -37840.90, -31422.28, -43229.25, -38088.89, -9710.56, -28748.84, -18880.00, -48166.71, 0.000, 0.000, 0.000, 20:26:48.417
115, -38070.38, -31737.22, -43128.11, -38218.55, -9237.24, -29092.27, -18925.04, -48202.43, 0.000, 0.000, 0.000, 20:26:48.418
116, -37993.72, -31885.19, -42611.45, -38377.70, -8478.11, -28805.63, -18224.72, -48296.84, 0.000, 0.000, 0.000, 20:26:48.418
117, -37713.34, -31655.19, -42405.44, -38348.68, -8492.50, -28306.49, -17769.44, -48325.59, 0.000, 0.000, 0.000, 20:26:48.418
118, -37610.00, -31361.62, -42793.06, -38171.75, -9263.79, -28274.31, -18183.86, -48241.25, 0.220, 0.862, -0.500, 20:26:48.418
119, -37843.38, -31421.43, -43228.52, -38096.94, -9707.34, -28752.61, -18877.57, -48170.82, 0.000, 0.000, 0.000, 20:26:48.418
120, -38074.21, -31737.13, -43131.63, -38223.16, -9229.35, -29097.86, -18920.75, -48215.93, 0.000, 0.000, 0.000, 20:26:48.418
121, -37995.62, -31883.51, -42613.51, -38379.96, -8477.39, -28810.71, -18219.40, -48307.75, 0.000, 0.000, 0.000, 20:26:48.418
122, -37705.09, -31648.53, -42389.21, -38343.59, -8483.34, -28290.94, -17743.39, -48317.56, 0.000, 0.000, 0.000, 20:26:48.418
123, -37602.32, -31355.94, -42786.64, -38161.91, -9261.80, -28268.59, -18171.68, -48242.35, 0.000, 0.000, 0.000, 20:26:48.418
124, -37833.03, -31415.53, -43225.68, -38089.18, -9707.94, -28751.88, -18883.80, -48171.94, 0.000, 0.000, 0.000, 20:26:48.418
125, -38061.33, -31726.98, -43114.95, -38213.64, -9235.09, -29079.93, -18913.73, -48209.22, 0.000, 0.000, 0.000, 20:26:48.418
126, -37983.91, -31872.98, -42601.44, -38368.31, -8481.24, -28802.05, -18225.19, -48298.86, 0.000, 0.000, 0.000, 20:26:48.419
127, -37704.11, -31648.73, -42383.62, -38341.98, -8482.06, -28291.27, -17754.15, -48327.96, 0.000, 0.000, 0.000, 20:26:48.419
128, -37599.41, -31353.26, -42777.53, -38160.59, -9254.87, -28267.29, -18177.15, -48241.25, 0.220, 0.860, -0.500, 20:26:48.419
129, -37828.16, -31413.25, -43218.41, -38083.26, -9701.01, -28747.54, -18879.04, -48165.23, 0.000, 0.000, 0.000, 20:26:48.419
130, -38064.84, -31727.61, -43124.23, -38206.62, -9236.39, -29100.27, -18936.67, -48201.89, 0.000, 0.000, 0.000, 20:26:48.419
131, -37990.59, -31874.70, -42609.38, -38363.21, -8478.44, -28825.12, -18257.96, -48295.10, 0.000, 0.000, 0.000, 20:26:48.419
132, -37711.01, -31656.06, -42389.16, -38344.24, -8479.83, -28300.30, -17775.20, -48328.76, 0.000, 0.000, 0.000, 20:26:48.419
133, -37608.48, -31356.10, -42781.62, -38156.66, -9253.20, -28267.49, -18186.00, -48239.62, 0.000, 0.000, 0.000, 20:26:48.419
134, -37841.86, -31414.19, -43231.13, -38083.28, -9710.85, -28762.65, -18903.07, -48164.27, 0.000, 0.000, 0.000, 20:26:48.419
135, -38068.62, -31729.66, -43130.44, -38215.74, -9241.84, -29106.64, -18951.19, -48209.09, 0.000, 0.000, 0.000, 20:26:48.419
136, -37990.27, -31877.25, -42613.51, -38374.05, -8477.99, -28822.71, -18253.37, -48303.77, 0.000, 0.000, 0.000, 20:26:48.419
137, -37699.55, -31645.24, -42383.33, -38342.16, -8466.13, -28293.53, -17758.91, -48323.51, 0.000, 0.000, 0.000, 20:26:48.420
138, -37596.35, -31351.36, -42772.61, -38162.74, -9239.61, -28253.28, -18153.64, -48242.33, 0.222, 0.866, -0.498, 20:26:48.420
139, -37833.39, -31417.19, -43220.81, -38096.42, -9698.96, -28733.70, -18847.35, -48170.45, 0.000, 0.000, 0.000, 20:26:48.420
140, -38076.71, -31742.20, -43136.79, -38235.14, -9253.44, -29087.46, -18893.55, -48224.76, 0.000, 0.000, 0.000, 20:26:48.420
141, -37995.21, -31880.00, -42630.18, -38377.83, -8495.29, -28831.87, -18232.07, -48313.72, 0.000, 0.000, 0.000, 20:26:48.420
142, -37697.91, -31639.01, -42393.68, -38331.70, -8474.55, -28313.63, -17762.51, -48318.79, 0.000, 0.000, 0.000, 20:26:48.420
143, -37603.16, -31354.18, -42784.01, -38163.77, -9243.61, -28273.64, -18170.11, -48240.98, 0.000, 0.000, 0.000, 20:26:48.420
144, -37837.95, -31409.52, -43235.52, -38084.38, -9705.62, -28771.52, -18896.70, -48168.41, 0.000, 0.000, 0.000, 20:26:48.420
145, -38070.12, -31726.45, -43129.30, -38213.14, -9236.90, -29101.19, -18933.00, -48206.61, 0.000, 0.000, 0.000, 20:26:48.420
146, -37999.21, -31878.75, -42619.01, -38373.99, -8482.31, -28821.01, -18241.59, -48303.75, 0.000, 0.000, 0.000, 20:26:48.420
147, -37714.84, -31654.58, -42396.96, -38345.91, -8476.92, -28303.50, -17760.67, -48330.66, 0.226, 0.862, -0.500, 20:26:48.420
148, -37607.95, -31352.21, -42786.98, -38163.01, -9247.45, -28272.81, -18177.09, -48246.55, 0.000, 0.000, 0.000, 20:26:48.421
149, -37838.35, -31409.30, -43228.77, -38090.12, -9703.94, -28746.44, -18878.86, -48164.75, 0.000, 0.000, 0.000, 20:26:48.421
150, -38074.32, -31730.13, -43134.24, -38217.28, -9245.62, -29090.39, -18924.93, -48201.56, 0.000, 0.000, 0.000, 20:26:48.421
151, -37999.44, -31880.38, -42621.15, -38370.03, -8488.32, -28817.83, -18242.38, -48297.11, 0.000, 0.000, 0.000, 20:26:48.421
152, -37704.84, -31644.86, -42388.27, -38333.24, -8471.49, -28292.50, -17758.77, -48316.27, 0.000, 0.000, 0.000, 20:26:48.421
153, -37605.82, -31354.94, -42778.87, -38163.39, -9241.82, -28251.58, -18160.88, -48232.61, 0.000, 0.000, 0.000, 20:26:48.421
154, -37843.67, -31420.23, -43233.12, -38097.39, -9706.40, -28735.85, -18868.31, -48169.39, 0.000, 0.000, 0.000, 20:26:48.421
155, -38068.06, -31725.77, -43130.66, -38213.82, -9239.23, -29082.12, -18919.77, -48201.56, 0.000, 0.000, 0.000, 20:26:48.421
156, -37999.35, -31881.79, -42620.35, -38377.70, -8480.18, -28814.84, -18237.44, -48306.57, 0.000, 0.000, 0.000, 20:26:48.421
157, -37709.18, -31655.81, -42398.42, -38354.63, -8466.50, -28298.54, -17757.16, -48335.98, 0.228, 0.864, -0.506, 20:26:48.421
158, -37603.66, -31355.54, -42788.32, -38170.65, -9244.06, -28263.15, -18167.81, -48249.57, 0.000, 0.000, 0.000, 20:26:48.421
159, -37833.88, -31409.97, -43240.72, -38095.30, -9715.95, -28762.11, -18904.14, -48171.00, 0.000, 0.000, 0.000, 20:26:48.421
160, -38069.80, -31730.02, -43136.50, -38224.77, -9251.52, -29094.84, -18944.98, -48210.57, 0.000, 0.000, 0.000, 20:26:48.422
161, -37996.87, -31877.23, -42620.64, -38372.67, -8486.38, -28822.55, -18262.13, -48302.25, 0.000, 0.000, 0.000, 20:26:48.422
162, -37707.66, -31650.52, -42393.23, -38345.40, -8472.67, -28305.62, -17784.48, -48322.55, 0.000, 0.000, 0.000, 20:26:48.422
163, -37605.22, -31358.65, -42777.57, -38170.63, -9240.03, -28261.08, -18183.59, -48244.07, 0.000, 0.000, 0.000, 20:26:48.422
164, -37839.54, -31416.96, -43226.57, -38095.30, -9702.04, -28740.36, -18883.94, -48176.34, 0.000, 0.000, 0.000, 20:26:48.422
165, -38072.30, -31725.33, -43139.76, -38212.41, -9250.43, -29102.17, -18954.75, -48211.23, 0.000, 0.000, 0.000, 20:26:48.422
166, -37998.99, -31878.41, -42616.50, -38368.20, -8481.39, -28816.79, -18261.80, -48303.73, 0.000, 0.000, 0.000, 20:26:48.422
167, -37710.79, -31646.04, -42387.71, -38332.70, -8462.30, -28297.44, -17779.40, -48317.56, 0.226, 0.858, -0.500, 20:26:48.422
168, -37599.25, -31346.40, -42779.61, -38160.75, -9229.50, -28251.04, -18179.14, -48236.72, 0.000, 0.000, 0.000, 20:26:48.422
169, -37830.46, -31407.69, -43232.54, -38092.20, -9700.86, -28726.62, -18881.59, -48175.88, 0.000, 0.000, 0.000, 20:26:48.422
170, -38073.27, -31731.92, -43138.75, -38212.90, -9252.26, -29073.96, -18931.39, -48216.73, 0.000, 0.000, 0.000, 20:26:48.422
171, -38007.93, -31881.90, -42633.16, -38363.68, -8500.35, -28822.51, -18269.06, -48302.83, 0.000, 0.000, 0.000, 20:26:48.423
172, -37719.11, -31658.45, -42396.61, -38340.53, -8475.80, -28301.17, -17788.21, -48322.41, 0.000, 0.000, 0.000, 20:26:48.423
173, -37617.14, -31366.98, -42774.66, -38165.96, -9237.06, -28242.99, -18169.53, -48242.46, 0.000, 0.000, 0.000, 20:26:48.423
174, -37848.07, -31417.77, -43224.99, -38085.76, -9705.80, -28724.72, -18880.09, -48169.30, 0.000, 0.000, 0.000, 20:26:48.423
175, -38083.62, -31738.67, -43139.00, -38217.70, -9258.25, -29077.54, -18936.98, -48213.52, 0.000, 0.000, 0.000, 20:26:48.423
176, -38005.21, -31889.26, -42618.29, -38373.83, -8488.72, -28803.08, -18234.49, -48305.83, 0.000, 0.000, 0.000, 20:26:48.423
177, -37719.66, -31664.98, -42387.64, -38345.67, -8466.44, -28286.98, -17738.16, -48327.84, 0.224, 0.862, -0.500, 20:26:48.423
178, -37610.81, -31364.50, -42766.98, -38161.11, -9234.60, -28227.44, -18119.40, -48236.83, 0.000, 0.000, 0.000, 20:26:48.423
179, -37840.18, -31414.30, -43222.59, -38082.43, -9714.27, -28714.99, -18842.23, -48166.58, 0.000, 0.000, 0.000, 20:26:48.423
180, -38077.22, -31729.71, -43133.48, -38208.43, -9261.47, -29066.30, -18902.47, -48206.05, 0.000, 0.000, 0.000, 20:26:48.423
181, -38013.39, -31884.29, -42639.89, -38365.11, -8513.18, -28836.63, -18267.34, -48306.16, 0.000, 0.000, 0.000, 20:26:48.423
182, -37718.07, -31658.88, -42394.71, -38344.24, -8475.83, -28309.20, -17778.26, -48329.72, 0.000, 0.000, 0.000, 20:26:48.423
183, -37611.41, -31365.13, -42768.47, -38170.16, -9233.84, -28242.59, -18148.70, -48249.46, 0.000, 0.000, 0.000, 20:26:48.424
184, -37845.73, -31419.09, -43229.08, -38088.87, -9713.53, -28736.16, -18878.08, -48174.89, 0.000, 0.000, 0.000, 20:26:48.424
